'sample interval','ABP'
'0.008 sec','mmHg'
150000,59.609
150001,59.296
150002,58.983
150003,58.670
150004,58.357
150005,58.201
150006,57.888
150007,57.731
150008,57.418
150009,57.106
150010,56.793
150011,56.480
150012,56.010
150013,55.697
150014,55.228
150015,54.915
150016,54.602
150017,54.133
150018,53.664
150019,53.038
150020,52.568
150021,52.099
150022,51.473
150023,51.004
150024,50.691
150025,50.378
150026,50.065
150027,50.065
150028,50.065
150029,50.065
150030,50.378
150031,50.847
150032,51.943
150033,53.820
150034,56.480
150035,59.765
150036,62.894
150037,65.711
150038,67.744
150039,69.622
150040,71.186
150041,73.064
150042,75.411
150043,77.914
150044,80.574
150045,83.077
150046,85.424
150047,87.301
150048,89.022
150049,90.274
150050,91.369
150051,92.151
150052,92.464
150053,92.621
150054,92.151
150055,91.369
150056,90.274
150057,88.709
150058,86.675
150059,84.485
150060,81.982
150061,79.478
150062,77.445
150063,75.724
150064,74.628
150065,73.690
150066,72.751
150067,71.656
150068,70.404
150069,69.153
150070,68.057
150071,67.119
150072,66.493
150073,65.867
150074,65.398
150075,64.928
150076,64.302
150077,63.677
150078,63.051
150079,62.581
150080,62.112
150081,61.799
150082,61.643
150083,61.486
150084,61.173
150085,61.017
150086,60.860
150087,60.704
150088,60.704
150089,60.548
150090,60.548
150091,60.548
150092,60.548
150093,60.548
150094,60.391
150095,60.235
150096,59.922
150097,59.609
150098,59.452
150099,59.139
150100,59.139
150101,59.139
150102,59.609
150103,60.235
150104,61.330
150105,62.738
150106,63.990
150107,65.085
150108,65.711
150109,66.180
150110,66.493
150111,66.806
150112,66.962
150113,67.275
150114,67.588
150115,67.744
150116,67.744
150117,67.744
150118,67.432
150119,67.119
150120,66.649
150121,66.023
150122,65.241
150123,64.302
150124,63.364
150125,62.738
150126,62.112
150127,61.799
150128,61.486
150129,61.173
150130,60.860
150131,60.235
150132,59.765
150133,59.296
150134,58.670
150135,58.044
150136,57.575
150137,57.106
150138,56.480
150139,56.010
150140,55.541
150141,55.072
150142,54.602
150143,54.289
150144,54.133
150145,53.820
150146,53.664
150147,53.351
150148,53.194
150149,52.881
150150,52.568
150151,52.256
150152,52.099
150153,51.786
150154,51.630
150155,51.317
150156,51.160
150157,51.004
150158,50.847
150159,50.691
150160,50.535
150161,50.378
150162,50.065
150163,49.909
150164,49.752
150165,49.439
150166,49.283
150167,49.126
150168,48.814
150169,48.657
150170,48.344
150171,48.188
150172,48.031
150173,47.875
150174,47.562
150175,47.562
150176,47.405
150177,47.405
150178,47.405
150179,47.405
150180,47.405
150181,47.249
150182,47.093
150183,46.936
150184,46.623
150185,46.310
150186,45.997
150187,45.684
150188,45.372
150189,45.215
150190,44.902
150191,44.746
150192,44.589
150193,44.433
150194,44.276
150195,43.963
150196,43.963
150197,44.276
150198,45.215
150199,47.249
150200,50.691
150201,55.228
150202,60.548
150203,65.398
150204,69.309
150205,71.812
150206,73.377
150207,74.941
150208,76.819
150209,79.791
150210,83.703
150211,88.709
150212,94.029
150213,99.192
150214,103.416
150215,106.701
150216,109.048
150217,110.769
150218,112.334
150219,113.898
150220,115.306
150221,116.089
150222,116.089
150223,115.463
150224,113.898
150225,111.864
150226,109.518
150227,107.014
150228,104.198
150229,100.913
150230,97.627
150231,94.342
150232,91.369
150233,89.022
150234,87.301
150235,86.049
150236,84.798
150237,83.546
150238,82.138
150239,80.730
150240,79.322
150241,78.070
150242,76.975
150243,76.036
150244,75.254
150245,74.628
150246,74.003
150247,73.220
150248,72.594
150249,71.969
150250,71.499
150251,70.873
150252,70.404
150253,69.935
150254,69.465
150255,68.996
150256,68.527
150257,68.057
150258,67.744
150259,67.588
150260,67.432
150261,67.275
150262,66.962
150263,66.649
150264,66.180
150265,65.554
150266,65.085
150267,64.459
150268,63.990
150269,63.520
150270,63.051
150271,62.581
150272,62.112
150273,61.486
150274,60.860
150275,60.391
150276,59.922
150277,59.609
150278,59.139
150279,58.827
150280,58.514
150281,58.201
150282,58.044
150283,57.888
150284,58.044
150285,58.827
150286,59.922
150287,61.799
150288,63.990
150289,66.180
150290,68.057
150291,69.465
150292,70.248
150293,71.030
150294,71.812
150295,72.751
150296,74.003
150297,75.411
150298,76.975
150299,78.383
150300,79.635
150301,80.730
150302,81.512
150303,81.982
150304,82.295
150305,82.138
150306,81.825
150307,81.043
150308,79.791
150309,78.383
150310,76.506
150311,74.628
150312,72.594
150313,70.873
150314,69.465
150315,68.527
150316,67.901
150317,67.432
150318,66.806
150319,65.867
150320,64.928
150321,63.990
150322,63.051
150323,62.269
150324,61.486
150325,60.860
150326,60.235
150327,59.765
150328,59.296
150329,58.670
150330,58.201
150331,57.731
150332,57.418
150333,57.106
150334,56.636
150335,56.323
150336,55.854
150337,55.541
150338,55.228
150339,55.072
150340,54.759
150341,54.602
150342,54.446
150343,54.289
150344,54.289
150345,54.133
150346,53.977
150347,53.664
150348,53.351
150349,52.881
150350,52.568
150351,52.256
150352,51.943
150353,51.630
150354,51.317
150355,51.004
150356,50.535
150357,50.065
150358,49.752
150359,49.283
150360,48.970
150361,48.657
150362,48.344
150363,48.031
150364,47.875
150365,47.875
150366,47.875
150367,48.344
150368,49.439
150369,51.160
150370,53.977
150371,57.731
150372,61.643
150373,65.241
150374,67.901
150375,70.091
150376,71.812
150377,73.533
150378,75.880
150379,78.696
150380,81.825
150381,85.267
150382,88.553
150383,91.525
150384,94.185
150385,96.375
150386,98.253
150387,99.661
150388,100.443
150389,100.756
150390,100.443
150391,99.661
150392,98.722
150393,97.314
150394,95.750
150395,93.872
150396,91.369
150397,88.553
150398,85.580
150399,82.764
150400,80.574
150401,78.853
150402,77.601
150403,76.506
150404,75.567
150405,74.315
150406,73.064
150407,71.812
150408,70.561
150409,69.465
150410,68.683
150411,67.901
150412,67.119
150413,66.493
150414,65.711
150415,64.928
150416,64.146
150417,63.520
150418,63.051
150419,62.581
150420,62.112
150421,61.799
150422,61.330
150423,60.860
150424,60.548
150425,60.235
150426,59.922
150427,59.609
150428,59.452
150429,59.296
150430,58.983
150431,58.827
150432,58.514
150433,58.201
150434,57.888
150435,57.418
150436,57.106
150437,56.949
150438,56.636
150439,56.323
150440,56.010
150441,55.541
150442,55.072
150443,54.446
150444,53.977
150445,53.351
150446,52.881
150447,52.412
150448,52.099
150449,51.943
150450,51.943
150451,51.786
150452,51.786
150453,51.943
150454,52.099
150455,52.568
150456,53.507
150457,55.228
150458,57.418
150459,60.235
150460,62.738
150461,65.085
150462,66.962
150463,68.527
150464,70.091
150465,71.812
150466,73.690
150467,75.880
150468,78.070
150469,79.948
150470,81.825
150471,83.233
150472,84.485
150473,85.424
150474,86.206
150475,86.675
150476,86.832
150477,86.519
150478,85.737
150479,84.798
150480,83.233
150481,81.512
150482,79.322
150483,77.132
150484,75.098
150485,73.377
150486,72.125
150487,71.186
150488,70.248
150489,69.622
150490,68.683
150491,67.588
150492,66.493
150493,65.554
150494,64.615
150495,64.146
150496,63.677
150497,63.051
150498,62.581
150499,62.112
150500,61.486
150501,61.017
150502,60.704
150503,60.391
150504,60.078
150505,59.922
150506,59.609
150507,59.296
150508,59.139
150509,58.983
150510,58.670
150511,58.670
150512,58.514
150513,58.357
150514,58.357
150515,58.201
150516,58.044
150517,58.044
150518,57.888
150519,57.731
150520,57.575
150521,57.262
150522,57.106
150523,56.793
150524,56.480
150525,56.167
150526,55.697
150527,55.385
150528,54.915
150529,54.602
150530,54.289
150531,53.977
150532,53.664
150533,53.351
150534,53.038
150535,52.881
150536,52.568
150537,52.568
150538,52.725
150539,53.507
150540,54.915
150541,57.106
150542,60.078
150543,63.364
150544,66.493
150545,69.153
150546,71.030
150547,72.594
150548,74.003
150549,75.567
150550,77.757
150551,80.417
150552,83.390
150553,86.206
150554,89.022
150555,91.525
150556,93.559
150557,95.280
150558,96.688
150559,97.627
150560,98.409
150561,98.879
150562,98.879
150563,98.409
150564,97.627
150565,96.219
150566,94.498
150567,92.308
150568,90.117
150569,87.614
150570,85.111
150571,83.077
150572,81.199
150573,79.635
150574,78.540
150575,77.445
150576,76.349
150577,75.254
150578,74.003
150579,72.907
150580,71.969
150581,71.030
150582,70.404
150583,69.622
150584,68.996
150585,68.370
150586,67.744
150587,67.119
150588,66.649
150589,66.180
150590,65.711
150591,65.241
150592,64.928
150593,64.772
150594,64.459
150595,64.146
150596,63.677
150597,63.364
150598,63.207
150599,62.894
150600,62.738
150601,62.581
150602,62.425
150603,62.112
150604,61.799
150605,61.486
150606,61.017
150607,60.548
150608,59.922
150609,59.452
150610,58.983
150611,58.357
150612,58.044
150613,57.575
150614,57.262
150615,56.793
150616,56.480
150617,56.167
150618,55.854
150619,55.541
150620,55.228
150621,55.072
150622,55.228
150623,55.697
150624,56.793
150625,58.514
150626,60.860
150627,63.677
150628,66.336
150629,68.683
150630,70.248
150631,71.343
150632,72.438
150633,73.533
150634,74.941
150635,76.819
150636,78.853
150637,81.199
150638,83.390
150639,85.267
150640,86.832
150641,88.240
150642,89.179
150643,89.804
150644,90.274
150645,90.430
150646,90.117
150647,89.335
150648,88.240
150649,86.832
150650,85.111
150651,83.077
150652,80.887
150653,78.853
150654,76.975
150655,75.567
150656,74.472
150657,73.690
150658,72.907
150659,72.125
150660,71.343
150661,70.248
150662,69.309
150663,68.370
150664,67.744
150665,67.119
150666,66.649
150667,66.023
150668,65.554
150669,64.928
150670,64.302
150671,63.833
150672,63.364
150673,63.051
150674,62.738
150675,62.269
150676,61.956
150677,61.486
150678,61.173
150679,61.017
150680,60.704
150681,60.548
150682,60.235
150683,60.078
150684,59.922
150685,59.765
150686,59.609
150687,59.296
150688,58.983
150689,58.514
150690,58.201
150691,57.731
150692,57.262
150693,56.793
150694,56.323
150695,55.854
150696,55.385
150697,54.915
150698,54.602
150699,54.289
150700,53.820
150701,53.351
150702,53.038
150703,52.568
150704,52.256
150705,52.099
150706,52.412
150707,53.351
150708,55.228
150709,58.044
150710,61.330
150711,64.615
150712,67.588
150713,69.778
150714,71.343
150715,72.594
150716,74.003
150717,75.880
150718,78.383
150719,81.043
150720,84.016
150721,86.988
150722,89.491
150723,91.838
150724,93.872
150725,95.437
150726,96.532
150727,97.314
150728,97.784
150729,97.784
150730,97.158
150731,96.063
150732,94.498
150733,92.621
150734,90.274
150735,87.770
150736,85.111
150737,82.764
150738,80.574
150739,78.696
150740,77.288
150741,76.193
150742,75.098
150743,74.159
150744,73.064
150745,71.969
150746,70.717
150747,69.622
150748,68.527
150749,67.744
150750,66.962
150751,66.180
150752,65.554
150753,65.085
150754,64.615
150755,64.146
150756,63.677
150757,63.207
150758,62.738
150759,62.425
150760,61.956
150761,61.486
150762,61.173
150763,60.860
150764,60.548
150765,60.391
150766,60.235
150767,60.078
150768,59.765
150769,59.609
150770,59.296
150771,58.827
150772,58.357
150773,58.044
150774,57.731
150775,57.418
150776,57.106
150777,56.636
150778,56.167
150779,55.541
150780,55.072
150781,54.602
150782,54.133
150783,53.664
150784,53.194
150785,52.725
150786,52.412
150787,52.099
150788,51.943
150789,51.630
150790,51.630
150791,51.943
150792,52.256
150793,53.194
150794,54.759
150795,57.106
150796,59.922
150797,62.894
150798,65.398
150799,67.432
150800,68.840
150801,70.248
150802,71.969
150803,73.846
150804,76.036
150805,78.383
150806,80.574
150807,82.608
150808,84.329
150809,85.893
150810,86.988
150811,88.083
150812,88.709
150813,89.022
150814,89.022
150815,88.553
150816,87.614
150817,86.362
150818,84.798
150819,82.764
150820,80.417
150821,78.070
150822,75.880
150823,74.003
150824,72.751
150825,71.812
150826,71.030
150827,70.091
150828,68.996
150829,67.744
150830,66.493
150831,65.398
150832,64.459
150833,63.833
150834,63.207
150835,62.581
150836,61.799
150837,61.173
150838,60.548
150839,59.922
150840,59.609
150841,59.296
150842,58.983
150843,58.670
150844,58.357
150845,58.044
150846,57.731
150847,57.418
150848,57.106
150849,56.949
150850,56.793
150851,56.636
150852,56.636
150853,56.480
150854,56.323
150855,56.167
150856,55.854
150857,55.541
150858,55.385
150859,55.072
150860,54.915
150861,54.602
150862,54.446
150863,53.977
150864,53.664
150865,53.038
150866,52.725
150867,52.256
150868,51.786
150869,51.473
150870,51.160
150871,50.847
150872,50.691
150873,50.535
150874,50.535
150875,50.691
150876,50.847
150877,51.317
150878,52.412
150879,54.289
150880,56.949
150881,60.235
150882,63.677
150883,66.649
150884,68.996
150885,70.873
150886,72.751
150887,74.785
150888,77.132
150889,79.948
150890,82.764
150891,85.580
150892,88.240
150893,90.587
150894,92.464
150895,94.185
150896,95.437
150897,96.688
150898,97.471
150899,97.940
150900,97.940
150901,97.314
150902,96.375
150903,94.967
150904,93.090
150905,91.056
150906,88.553
150907,86.049
150908,83.390
150909,81.043
150910,79.322
150911,77.914
150912,76.975
150913,75.880
150914,74.785
150915,73.690
150916,72.438
150917,71.499
150918,70.561
150919,69.935
150920,69.309
150921,68.840
150922,68.214
150923,67.588
150924,66.962
150925,66.336
150926,65.867
150927,65.398
150928,64.928
150929,64.615
150930,64.302
150931,63.990
150932,63.833
150933,63.677
150934,63.364
150935,63.207
150936,63.051
150937,62.738
150938,62.581
150939,62.425
150940,62.269
150941,62.112
150942,62.112
150943,62.269
150944,62.738
150945,63.364
150946,64.146
150947,64.928
150948,65.398
150949,65.554
150950,65.554
150951,65.398
150952,65.241
150953,64.928
150954,64.928
150955,64.928
150956,64.928
150957,64.615
150958,64.302
150959,63.833
150960,63.051
150961,62.112
150962,61.330
150963,60.704
150964,60.235
150965,59.922
150966,59.609
150967,59.452
150968,59.139
150969,58.827
150970,58.357
150971,57.731
150972,57.262
150973,56.636
150974,56.167
150975,55.697
150976,55.228
150977,54.915
150978,54.446
150979,54.133
150980,53.977
150981,53.664
150982,53.507
150983,53.194
150984,53.038
150985,52.725
150986,52.412
150987,52.099
150988,51.786
150989,51.630
150990,51.317
150991,51.160
150992,51.004
150993,50.847
150994,50.691
150995,50.535
150996,50.378
150997,50.378
150998,50.222
150999,50.065
151000,49.752
151001,49.439
151002,49.283
151003,49.126
151004,48.814
151005,48.657
151006,48.501
151007,48.188
151008,48.031
151009,47.875
151010,47.562
151011,47.405
151012,47.249
151013,47.093
151014,46.936
151015,46.623
151016,46.467
151017,46.310
151018,46.154
151019,45.997
151020,45.841
151021,45.841
151022,45.684
151023,45.684
151024,45.684
151025,45.684
151026,45.528
151027,45.372
151028,45.372
151029,45.215
151030,44.902
151031,44.746
151032,44.433
151033,44.120
151034,43.963
151035,43.651
151036,43.494
151037,43.338
151038,43.181
151039,43.181
151040,43.025
151041,42.868
151042,42.868
151043,43.025
151044,43.807
151045,45.684
151046,48.814
151047,53.507
151048,59.139
151049,64.459
151050,68.996
151051,71.969
151052,73.846
151053,75.411
151054,77.288
151055,80.104
151056,84.172
151057,89.335
151058,95.124
151059,100.600
151060,105.293
151061,109.048
151062,112.021
151063,114.524
151064,116.714
151065,118.435
151066,119.531
151067,120.156
151068,120.000
151069,119.374
151070,118.122
151071,116.558
151072,114.524
151073,112.177
151074,109.205
151075,105.763
151076,102.008
151077,97.940
151078,94.342
151079,91.369
151080,89.179
151081,87.614
151082,86.206
151083,84.954
151084,83.703
151085,82.295
151086,80.887
151087,79.478
151088,78.227
151089,77.132
151090,76.349
151091,75.567
151092,74.941
151093,74.315
151094,73.690
151095,73.064
151096,72.438
151097,71.812
151098,71.186
151099,70.717
151100,70.091
151101,69.622
151102,69.309
151103,68.840
151104,68.527
151105,68.370
151106,68.057
151107,67.744
151108,67.432
151109,67.119
151110,66.806
151111,66.180
151112,65.867
151113,65.241
151114,64.772
151115,64.302
151116,63.833
151117,63.207
151118,62.581
151119,61.956
151120,61.486
151121,60.860
151122,60.391
151123,59.922
151124,59.609
151125,59.139
151126,58.670
151127,58.201
151128,57.888
151129,57.418
151130,57.262
151131,57.418
151132,58.044
151133,59.139
151134,60.860
151135,62.894
151136,65.085
151137,66.806
151138,68.370
151139,69.309
151140,70.091
151141,70.873
151142,71.969
151143,73.377
151144,74.785
151145,76.349
151146,77.757
151147,79.009
151148,79.948
151149,80.574
151150,81.043
151151,81.199
151152,81.043
151153,80.574
151154,79.635
151155,78.540
151156,77.132
151157,75.254
151158,73.377
151159,71.499
151160,69.935
151161,68.840
151162,67.901
151163,67.275
151164,66.649
151165,65.867
151166,64.928
151167,64.146
151168,63.207
151169,62.269
151170,61.486
151171,60.860
151172,60.235
151173,59.765
151174,59.139
151175,58.670
151176,58.044
151177,57.575
151178,57.106
151179,56.793
151180,56.480
151181,56.167
151182,55.854
151183,55.541
151184,55.228
151185,54.915
151186,54.759
151187,54.602
151188,54.289
151189,54.133
151190,53.977
151191,53.820
151192,53.664
151193,53.507
151194,53.351
151195,53.038
151196,52.725
151197,52.412
151198,52.099
151199,51.786
151200,51.473
151201,51.160
151202,50.691
151203,50.378
151204,50.065
151205,49.596
151206,49.283
151207,48.814
151208,48.344
151209,48.031
151210,47.718
151211,47.562
151212,47.405
151213,47.562
151214,47.875
151215,48.814
151216,50.535
151217,53.194
151218,56.793
151219,60.860
151220,64.459
151221,67.432
151222,69.778
151223,71.812
151224,73.690
151225,75.880
151226,78.696
151227,81.825
151228,85.111
151229,88.396
151230,91.525
151231,94.185
151232,96.532
151233,98.409
151234,99.817
151235,100.913
151236,101.382
151237,101.382
151238,101.069
151239,100.130
151240,98.879
151241,97.158
151242,94.967
151243,92.621
151244,89.804
151245,86.832
151246,84.016
151247,81.512
151248,79.635
151249,78.227
151250,77.132
151251,76.193
151252,74.941
151253,73.533
151254,72.125
151255,70.717
151256,69.622
151257,68.683
151258,67.901
151259,67.119
151260,66.493
151261,65.711
151262,64.928
151263,64.302
151264,63.677
151265,63.207
151266,62.738
151267,62.425
151268,62.112
151269,61.799
151270,61.486
151271,61.017
151272,60.860
151273,60.548
151274,60.235
151275,60.235
151276,59.922
151277,59.765
151278,59.609
151279,59.296
151280,58.983
151281,58.670
151282,58.357
151283,58.044
151284,57.888
151285,57.575
151286,57.262
151287,56.793
151288,56.480
151289,55.854
151290,55.385
151291,54.915
151292,54.446
151293,53.977
151294,53.664
151295,53.194
151296,53.038
151297,52.881
151298,52.725
151299,52.725
151300,52.881
151301,53.038
151302,53.507
151303,54.289
151304,55.854
151305,58.201
151306,60.860
151307,63.520
151308,65.867
151309,67.744
151310,69.309
151311,70.717
151312,72.282
151313,74.159
151314,76.193
151315,78.227
151316,80.261
151317,82.138
151318,83.703
151319,84.798
151320,85.893
151321,86.675
151322,87.301
151323,87.458
151324,87.301
151325,86.988
151326,86.049
151327,84.954
151328,83.546
151329,81.669
151330,79.635
151331,77.445
151332,75.567
151333,74.159
151334,73.064
151335,72.125
151336,71.343
151337,70.404
151338,69.309
151339,68.370
151340,67.275
151341,66.493
151342,65.867
151343,65.398
151344,64.928
151345,64.615
151346,64.146
151347,63.677
151348,63.207
151349,62.738
151350,62.269
151351,61.956
151352,61.799
151353,61.486
151354,61.330
151355,61.017
151356,60.704
151357,60.391
151358,60.235
151359,59.922
151360,59.922
151361,59.609
151362,59.609
151363,59.296
151364,59.139
151365,58.983
151366,58.670
151367,58.514
151368,58.201
151369,57.888
151370,57.418
151371,57.106
151372,56.636
151373,56.167
151374,55.854
151375,55.385
151376,54.915
151377,54.602
151378,54.289
151379,53.977
151380,53.664
151381,53.351
151382,53.038
151383,52.725
151384,52.568
151385,52.725
151386,53.507
151387,54.915
151388,57.262
151389,60.235
151390,63.677
151391,66.806
151392,69.465
151393,71.343
151394,72.751
151395,74.159
151396,75.724
151397,77.757
151398,80.417
151399,83.390
151400,86.519
151401,89.491
151402,92.308
151403,94.654
151404,96.532
151405,98.096
151406,99.192
151407,99.817
151408,99.817
151409,99.505
151410,98.879
151411,97.940
151412,96.688
151413,94.967
151414,93.090
151415,90.743
151416,88.240
151417,85.580
151418,83.233
151419,81.356
151420,79.948
151421,78.696
151422,77.757
151423,76.662
151424,75.567
151425,74.472
151426,73.377
151427,72.438
151428,71.656
151429,71.030
151430,70.404
151431,69.935
151432,69.309
151433,68.683
151434,68.057
151435,67.588
151436,67.119
151437,66.649
151438,66.336
151439,65.867
151440,65.554
151441,65.085
151442,64.615
151443,64.302
151444,63.990
151445,63.833
151446,63.677
151447,63.364
151448,63.207
151449,62.894
151450,62.581
151451,62.112
151452,61.799
151453,61.330
151454,60.860
151455,60.391
151456,59.922
151457,59.296
151458,58.827
151459,58.357
151460,57.888
151461,57.575
151462,57.262
151463,56.949
151464,56.636
151465,56.323
151466,56.010
151467,55.697
151468,55.541
151469,55.541
151470,55.854
151471,56.793
151472,58.357
151473,60.704
151474,63.364
151475,66.180
151476,68.683
151477,70.404
151478,71.656
151479,72.751
151480,73.846
151481,75.254
151482,76.975
151483,79.009
151484,81.199
151485,83.390
151486,85.267
151487,86.988
151488,88.396
151489,89.491
151490,90.117
151491,90.430
151492,90.587
151493,90.274
151494,89.491
151495,88.553
151496,87.145
151497,85.424
151498,83.546
151499,81.356
151500,79.322
151501,77.445
151502,76.036
151503,74.941
151504,74.315
151505,73.533
151506,72.751
151507,71.812
151508,70.873
151509,69.935
151510,68.996
151511,68.057
151512,67.432
151513,66.806
151514,66.180
151515,65.711
151516,65.241
151517,64.615
151518,64.146
151519,63.677
151520,63.364
151521,63.051
151522,62.738
151523,62.425
151524,61.956
151525,61.799
151526,61.486
151527,61.173
151528,61.017
151529,60.704
151530,60.548
151531,60.235
151532,60.078
151533,59.922
151534,59.609
151535,59.139
151536,58.670
151537,58.201
151538,57.575
151539,57.106
151540,56.480
151541,55.854
151542,55.385
151543,54.915
151544,54.602
151545,54.289
151546,53.820
151547,53.351
151548,53.038
151549,52.725
151550,52.256
151551,51.943
151552,51.943
151553,52.099
151554,52.725
151555,54.289
151556,56.793
151557,59.922
151558,63.364
151559,66.493
151560,68.840
151561,70.717
151562,72.125
151563,73.533
151564,75.254
151565,77.601
151566,80.261
151567,83.233
151568,86.049
151569,88.866
151570,91.212
151571,93.246
151572,94.967
151573,96.375
151574,97.158
151575,97.627
151576,97.784
151577,97.314
151578,96.532
151579,95.437
151580,93.716
151581,91.682
151582,89.179
151583,86.519
151584,83.859
151585,81.356
151586,79.166
151587,77.601
151588,76.349
151589,75.411
151590,74.472
151591,73.533
151592,72.438
151593,71.186
151594,69.935
151595,68.840
151596,67.901
151597,67.119
151598,66.493
151599,65.867
151600,65.398
151601,64.928
151602,64.459
151603,63.990
151604,63.520
151605,63.207
151606,62.738
151607,62.425
151608,61.956
151609,61.643
151610,61.330
151611,61.017
151612,60.860
151613,60.548
151614,60.391
151615,60.078
151616,59.922
151617,59.609
151618,59.296
151619,58.827
151620,58.514
151621,58.044
151622,57.731
151623,57.262
151624,56.793
151625,56.480
151626,55.854
151627,55.385
151628,54.915
151629,54.446
151630,53.977
151631,53.507
151632,53.038
151633,52.725
151634,52.256
151635,52.099
151636,51.786
151637,51.786
151638,51.786
151639,52.099
151640,52.725
151641,53.820
151642,55.541
151643,58.201
151644,61.173
151645,63.990
151646,66.493
151647,68.370
151648,69.778
151649,71.186
151650,72.751
151651,74.628
151652,76.819
151653,79.009
151654,81.199
151655,83.390
151656,85.111
151657,86.675
151658,87.927
151659,88.866
151660,89.335
151661,89.491
151662,89.335
151663,88.553
151664,87.614
151665,86.206
151666,84.485
151667,82.295
151668,79.948
151669,77.601
151670,75.567
151671,73.846
151672,72.594
151673,71.656
151674,70.717
151675,69.778
151676,68.527
151677,67.275
151678,66.180
151679,65.241
151680,64.459
151681,63.833
151682,63.207
151683,62.738
151684,62.112
151685,61.486
151686,60.860
151687,60.391
151688,60.078
151689,59.765
151690,59.609
151691,59.296
151692,59.139
151693,58.827
151694,58.670
151695,58.514
151696,58.357
151697,58.201
151698,58.044
151699,57.731
151700,57.575
151701,57.418
151702,57.262
151703,57.106
151704,56.793
151705,56.636
151706,56.323
151707,56.167
151708,55.854
151709,55.541
151710,55.228
151711,54.759
151712,54.289
151713,53.664
151714,53.351
151715,52.881
151716,52.568
151717,52.256
151718,51.943
151719,51.630
151720,51.473
151721,51.317
151722,51.160
151723,51.317
151724,51.630
151725,52.099
151726,53.351
151727,55.541
151728,58.357
151729,61.956
151730,65.398
151731,68.370
151732,70.717
151733,72.594
151734,74.315
151735,76.349
151736,78.696
151737,81.356
151738,84.329
151739,87.145
151740,89.961
151741,92.464
151742,94.498
151743,96.375
151744,97.627
151745,98.722
151746,99.348
151747,99.661
151748,99.505
151749,99.035
151750,98.096
151751,96.688
151752,94.811
151753,92.464
151754,89.961
151755,87.301
151756,84.798
151757,82.764
151758,80.887
151759,79.635
151760,78.383
151761,77.288
151762,76.193
151763,74.941
151764,73.846
151765,72.751
151766,71.969
151767,71.186
151768,70.561
151769,69.935
151770,69.309
151771,68.683
151772,68.057
151773,67.588
151774,67.119
151775,66.649
151776,66.180
151777,65.867
151778,65.554
151779,65.085
151780,64.772
151781,64.459
151782,64.146
151783,63.833
151784,63.677
151785,63.364
151786,63.051
151787,63.051
151788,62.738
151789,62.581
151790,62.269
151791,61.956
151792,61.486
151793,61.017
151794,60.548
151795,60.078
151796,59.609
151797,59.139
151798,58.670
151799,58.201
151800,57.731
151801,57.262
151802,56.949
151803,56.636
151804,56.167
151805,55.854
151806,55.541
151807,55.228
151808,55.072
151809,55.072
151810,55.541
151811,56.636
151812,58.357
151813,60.704
151814,63.520
151815,66.336
151816,68.683
151817,70.404
151818,71.812
151819,72.751
151820,74.003
151821,75.567
151822,77.601
151823,79.791
151824,82.138
151825,84.485
151826,86.675
151827,88.396
151828,89.804
151829,91.056
151830,91.838
151831,92.308
151832,92.464
151833,92.308
151834,91.682
151835,90.900
151836,89.648
151837,87.927
151838,85.893
151839,83.703
151840,81.356
151841,79.322
151842,77.601
151843,76.349
151844,75.411
151845,74.628
151846,73.690
151847,72.751
151848,71.656
151849,70.561
151850,69.622
151851,68.683
151852,68.057
151853,67.432
151854,66.806
151855,66.336
151856,65.867
151857,65.241
151858,64.928
151859,64.459
151860,63.990
151861,63.677
151862,63.364
151863,62.894
151864,62.581
151865,62.425
151866,62.112
151867,61.799
151868,61.643
151869,61.486
151870,61.173
151871,61.017
151872,60.860
151873,60.704
151874,60.548
151875,60.235
151876,59.765
151877,59.452
151878,58.983
151879,58.514
151880,58.044
151881,57.575
151882,57.106
151883,56.636
151884,56.323
151885,56.010
151886,55.697
151887,55.541
151888,55.228
151889,54.915
151890,54.602
151891,54.289
151892,54.289
151893,54.446
151894,55.228
151895,56.636
151896,58.983
151897,62.112
151898,65.554
151899,68.840
151900,71.343
151901,73.220
151902,74.472
151903,75.724
151904,77.288
151905,79.322
151906,81.825
151907,84.641
151908,87.614
151909,90.430
151910,92.777
151911,94.967
151912,96.688
151913,98.096
151914,99.035
151915,99.817
151916,100.130
151917,99.974
151918,99.348
151919,98.096
151920,96.532
151921,94.498
151922,91.995
151923,89.335
151924,86.519
151925,84.016
151926,81.825
151927,80.104
151928,79.009
151929,78.070
151930,77.288
151931,76.349
151932,75.254
151933,74.003
151934,72.751
151935,71.656
151936,70.717
151937,69.935
151938,69.309
151939,68.683
151940,68.057
151941,67.275
151942,66.649
151943,66.023
151944,65.398
151945,64.772
151946,64.302
151947,63.833
151948,63.364
151949,63.051
151950,62.738
151951,62.425
151952,62.112
151953,61.799
151954,61.486
151955,61.330
151956,61.017
151957,60.704
151958,60.391
151959,59.922
151960,59.609
151961,58.983
151962,58.514
151963,58.044
151964,57.418
151965,56.949
151966,56.480
151967,55.854
151968,55.541
151969,54.915
151970,54.602
151971,54.133
151972,53.664
151973,53.194
151974,52.725
151975,52.412
151976,52.099
151977,52.099
151978,52.099
151979,52.568
151980,53.664
151981,55.541
151982,58.201
151983,61.330
151984,64.302
151985,66.806
151986,68.683
151987,70.091
151988,71.343
151989,72.907
151990,74.628
151991,76.819
151992,79.166
151993,81.512
151994,83.703
151995,85.580
151996,87.145
151997,88.553
151998,89.491
151999,90.117
152000,90.430
152001,90.430
152002,89.961
152003,89.022
152004,87.770
152005,86.049
152006,84.016
152007,81.669
152008,79.166
152009,76.819
152010,74.941
152011,73.533
152012,72.438
152013,71.499
152014,70.717
152015,69.778
152016,68.683
152017,67.432
152018,66.493
152019,65.554
152020,64.615
152021,63.990
152022,63.364
152023,62.738
152024,62.269
152025,61.643
152026,61.173
152027,60.704
152028,60.391
152029,60.078
152030,59.765
152031,59.452
152032,58.983
152033,58.670
152034,58.357
152035,58.044
152036,57.888
152037,57.575
152038,57.418
152039,57.106
152040,56.949
152041,56.793
152042,56.636
152043,56.480
152044,56.167
152045,55.854
152046,55.541
152047,55.228
152048,54.759
152049,54.446
152050,53.977
152051,53.664
152052,53.038
152053,52.725
152054,52.256
152055,51.786
152056,51.317
152057,50.847
152058,50.535
152059,50.065
152060,49.909
152061,49.596
152062,49.439
152063,49.439
152064,49.752
152065,50.222
152066,51.317
152067,53.351
152068,56.323
152069,59.765
152070,63.364
152071,66.493
152072,68.996
152073,70.873
152074,72.751
152075,74.785
152076,77.132
152077,79.948
152078,82.920
152079,85.737
152080,88.553
152081,90.900
152082,92.933
152083,94.811
152084,96.063
152085,97.001
152086,97.627
152087,97.940
152088,97.627
152089,96.845
152090,95.593
152091,93.872
152092,91.838
152093,89.491
152094,86.675
152095,84.016
152096,81.512
152097,79.322
152098,77.757
152099,76.506
152100,75.567
152101,74.472
152102,73.220
152103,71.812
152104,70.248
152105,68.996
152106,68.057
152107,67.432
152108,66.806
152109,66.180
152110,65.554
152111,64.928
152112,64.302
152113,63.677
152114,63.364
152115,63.051
152116,62.738
152117,62.425
152118,62.112
152119,61.799
152120,61.486
152121,61.173
152122,61.017
152123,60.860
152124,60.704
152125,60.548
152126,60.391
152127,60.235
152128,60.078
152129,59.765
152130,59.452
152131,59.139
152132,58.827
152133,58.357
152134,58.044
152135,57.731
152136,57.418
152137,57.106
152138,56.636
152139,56.167
152140,55.697
152141,55.228
152142,54.759
152143,54.446
152144,54.133
152145,53.820
152146,53.664
152147,53.507
152148,53.507
152149,53.664
152150,53.820
152151,54.289
152152,55.072
152153,56.480
152154,58.514
152155,61.173
152156,63.990
152157,66.806
152158,68.996
152159,70.561
152160,72.125
152161,73.533
152162,75.254
152163,77.445
152164,79.635
152165,81.825
152166,84.172
152167,86.049
152168,87.770
152169,89.179
152170,90.430
152171,91.525
152172,92.308
152173,92.621
152174,92.621
152175,92.151
152176,91.212
152177,89.961
152178,88.240
152179,86.049
152180,83.859
152181,81.669
152182,79.478
152183,77.757
152184,76.349
152185,75.254
152186,74.315
152187,73.377
152188,72.282
152189,71.186
152190,70.248
152191,69.309
152192,68.527
152193,67.901
152194,67.275
152195,66.806
152196,66.180
152197,65.554
152198,65.085
152199,64.615
152200,64.146
152201,63.677
152202,63.364
152203,63.051
152204,62.738
152205,62.425
152206,62.112
152207,61.799
152208,61.486
152209,61.330
152210,61.173
152211,60.860
152212,60.860
152213,60.704
152214,60.548
152215,60.391
152216,60.078
152217,59.765
152218,59.296
152219,58.983
152220,58.514
152221,58.044
152222,57.575
152223,57.106
152224,56.636
152225,56.167
152226,55.854
152227,55.385
152228,55.072
152229,54.915
152230,54.446
152231,54.133
152232,53.820
152233,53.664
152234,53.507
152235,53.820
152236,54.759
152237,56.480
152238,58.983
152239,62.112
152240,65.554
152241,68.527
152242,70.873
152243,72.438
152244,73.690
152245,75.098
152246,76.819
152247,79.009
152248,81.512
152249,84.485
152250,87.301
152251,90.117
152252,92.464
152253,94.498
152254,96.063
152255,97.471
152256,98.253
152257,98.879
152258,99.192
152259,98.879
152260,98.253
152261,97.158
152262,95.750
152263,93.716
152264,91.369
152265,88.866
152266,86.206
152267,83.703
152268,81.669
152269,80.104
152270,78.853
152271,77.914
152272,76.975
152273,75.880
152274,74.785
152275,73.690
152276,72.438
152277,71.499
152278,70.873
152279,70.248
152280,69.778
152281,69.309
152282,68.683
152283,68.214
152284,67.744
152285,67.119
152286,66.649
152287,66.180
152288,65.867
152289,65.398
152290,65.085
152291,64.772
152292,64.459
152293,64.146
152294,63.990
152295,63.677
152296,63.520
152297,63.207
152298,63.051
152299,62.738
152300,62.425
152301,61.956
152302,61.486
152303,61.173
152304,60.548
152305,60.078
152306,59.609
152307,58.983
152308,58.514
152309,58.044
152310,57.731
152311,57.418
152312,57.106
152313,56.793
152314,56.480
152315,56.010
152316,55.697
152317,55.541
152318,55.385
152319,55.541
152320,56.323
152321,57.575
152322,59.609
152323,62.425
152324,65.398
152325,68.057
152326,70.248
152327,71.812
152328,72.907
152329,74.003
152330,75.254
152331,76.975
152332,79.009
152333,81.512
152334,83.859
152335,86.049
152336,88.240
152337,89.961
152338,91.369
152339,92.464
152340,93.090
152341,93.403
152342,93.403
152343,92.933
152344,91.995
152345,90.743
152346,89.022
152347,86.988
152348,84.798
152349,82.608
152350,80.261
152351,78.383
152352,76.975
152353,76.036
152354,75.254
152355,74.315
152356,73.377
152357,72.438
152358,71.343
152359,70.248
152360,69.309
152361,68.370
152362,67.744
152363,67.119
152364,66.649
152365,66.023
152366,65.398
152367,64.772
152368,64.146
152369,63.520
152370,63.051
152371,62.425
152372,62.112
152373,61.643
152374,61.173
152375,60.860
152376,60.391
152377,60.078
152378,59.765
152379,59.609
152380,59.296
152381,58.983
152382,58.827
152383,58.514
152384,58.044
152385,57.731
152386,57.262
152387,56.793
152388,56.167
152389,55.541
152390,55.072
152391,54.602
152392,54.289
152393,53.820
152394,53.351
152395,53.038
152396,52.725
152397,52.256
152398,51.943
152399,51.630
152400,51.317
152401,51.004
152402,50.847
152403,51.004
152404,51.786
152405,53.194
152406,55.541
152407,58.670
152408,62.112
152409,65.398
152410,68.057
152411,69.935
152412,71.499
152413,73.064
152414,74.941
152415,77.132
152416,79.948
152417,82.764
152418,85.737
152419,88.396
152420,90.743
152421,92.777
152422,94.498
152423,95.750
152424,96.532
152425,97.158
152426,97.158
152427,96.845
152428,96.063
152429,94.654
152430,92.933
152431,90.743
152432,88.083
152433,85.424
152434,82.608
152435,80.261
152436,78.227
152437,76.819
152438,75.880
152439,74.941
152440,73.846
152441,72.751
152442,71.343
152443,69.935
152444,68.840
152445,67.744
152446,66.962
152447,66.336
152448,65.711
152449,65.085
152450,64.459
152451,63.990
152452,63.364
152453,62.894
152454,62.425
152455,62.112
152456,61.799
152457,61.486
152458,61.173
152459,60.860
152460,60.548
152461,60.235
152462,59.922
152463,59.765
152464,59.609
152465,59.452
152466,59.139
152467,58.983
152468,58.514
152469,58.201
152470,57.731
152471,57.418
152472,57.106
152473,56.793
152474,56.480
152475,56.010
152476,55.541
152477,54.915
152478,54.446
152479,53.977
152480,53.507
152481,53.038
152482,52.568
152483,52.099
152484,51.630
152485,51.317
152486,51.160
152487,51.160
152488,51.160
152489,51.317
152490,51.943
152491,52.881
152492,54.602
152493,57.106
152494,60.078
152495,63.051
152496,65.711
152497,67.744
152498,69.309
152499,70.873
152500,72.594
152501,74.628
152502,76.975
152503,79.478
152504,81.825
152505,84.016
152506,85.893
152507,87.301
152508,88.553
152509,89.491
152510,90.117
152511,90.587
152512,90.587
152513,90.117
152514,89.179
152515,87.927
152516,86.206
152517,84.172
152518,81.982
152519,79.635
152520,77.288
152521,75.411
152522,74.003
152523,72.907
152524,71.969
152525,71.030
152526,69.935
152527,68.527
152528,67.432
152529,66.336
152530,65.554
152531,64.928
152532,64.302
152533,63.833
152534,63.207
152535,62.581
152536,61.956
152537,61.330
152538,61.017
152539,60.704
152540,60.391
152541,60.078
152542,59.922
152543,59.609
152544,59.296
152545,59.139
152546,58.983
152547,58.670
152548,58.514
152549,58.357
152550,58.201
152551,58.044
152552,57.888
152553,57.731
152554,57.418
152555,57.262
152556,56.949
152557,56.636
152558,56.480
152559,56.167
152560,55.854
152561,55.541
152562,55.228
152563,54.759
152564,54.289
152565,53.977
152566,53.664
152567,53.351
152568,53.038
152569,52.725
152570,52.568
152571,52.412
152572,52.412
152573,52.412
152574,52.881
152575,53.507
152576,54.759
152577,56.793
152578,59.609
152579,62.894
152580,66.180
152581,68.996
152582,71.186
152583,72.907
152584,74.628
152585,76.506
152586,78.853
152587,81.512
152588,84.172
152589,86.988
152590,89.648
152591,91.995
152592,94.185
152593,96.063
152594,97.314
152595,98.409
152596,99.035
152597,99.192
152598,99.035
152599,98.409
152600,97.314
152601,95.906
152602,94.185
152603,91.995
152604,89.491
152605,86.988
152606,84.485
152607,82.451
152608,80.730
152609,79.322
152610,78.070
152611,76.975
152612,75.567
152613,74.315
152614,73.220
152615,72.125
152616,71.343
152617,70.561
152618,69.935
152619,69.309
152620,68.683
152621,68.057
152622,67.432
152623,66.962
152624,66.493
152625,66.023
152626,65.554
152627,65.241
152628,64.928
152629,64.615
152630,64.302
152631,63.833
152632,63.677
152633,63.364
152634,63.051
152635,62.894
152636,62.581
152637,62.425
152638,62.269
152639,62.112
152640,61.799
152641,61.486
152642,61.017
152643,60.548
152644,60.078
152645,59.609
152646,58.983
152647,58.514
152648,58.044
152649,57.575
152650,57.106
152651,56.793
152652,56.480
152653,56.167
152654,55.854
152655,55.541
152656,55.072
152657,54.915
152658,54.759
152659,55.072
152660,55.854
152661,57.418
152662,59.609
152663,62.581
152664,65.554
152665,68.214
152666,70.248
152667,71.499
152668,72.594
152669,73.690
152670,75.098
152671,76.975
152672,79.322
152673,81.825
152674,84.172
152675,86.519
152676,88.396
152677,90.117
152678,91.369
152679,92.308
152680,92.777
152681,93.090
152682,92.933
152683,92.464
152684,91.682
152685,90.430
152686,88.866
152687,86.988
152688,84.954
152689,82.764
152690,80.574
152691,78.696
152692,77.132
152693,76.036
152694,75.098
152695,74.159
152696,73.220
152697,72.125
152698,71.186
152699,70.091
152700,69.309
152701,68.683
152702,68.057
152703,67.432
152704,66.962
152705,66.336
152706,65.711
152707,65.241
152708,64.928
152709,64.459
152710,64.146
152711,63.677
152712,63.364
152713,63.051
152714,62.738
152715,62.425
152716,62.112
152717,61.799
152718,61.643
152719,61.486
152720,61.330
152721,61.017
152722,60.860
152723,60.548
152724,60.235
152725,59.765
152726,59.296
152727,58.983
152728,58.514
152729,58.044
152730,57.575
152731,57.106
152732,56.636
152733,56.323
152734,56.010
152735,55.697
152736,55.385
152737,55.072
152738,54.759
152739,54.446
152740,54.133
152741,53.977
152742,54.289
152743,55.072
152744,56.636
152745,58.983
152746,62.112
152747,65.554
152748,68.683
152749,71.186
152750,72.907
152751,74.159
152752,75.411
152753,76.819
152754,79.009
152755,81.512
152756,84.329
152757,87.458
152758,90.274
152759,92.933
152760,94.967
152761,96.688
152762,97.940
152763,98.879
152764,99.192
152765,99.348
152766,99.035
152767,98.409
152768,97.314
152769,95.750
152770,93.716
152771,91.212
152772,88.553
152773,85.893
152774,83.546
152775,81.669
152776,80.104
152777,79.009
152778,78.070
152779,76.975
152780,75.880
152781,74.628
152782,73.377
152783,72.282
152784,71.343
152785,70.561
152786,69.935
152787,69.309
152788,68.840
152789,68.214
152790,67.588
152791,66.962
152792,66.493
152793,65.867
152794,65.398
152795,64.928
152796,64.459
152797,63.990
152798,63.520
152799,63.051
152800,62.581
152801,62.112
152802,61.799
152803,61.486
152804,61.173
152805,60.860
152806,60.548
152807,60.235
152808,59.765
152809,59.296
152810,58.670
152811,58.044
152812,57.418
152813,56.793
152814,56.323
152815,55.854
152816,55.385
152817,54.915
152818,54.446
152819,53.977
152820,53.664
152821,53.351
152822,52.881
152823,52.568
152824,52.256
152825,52.099
152826,51.943
152827,52.412
152828,53.351
152829,55.072
152830,57.731
152831,60.860
152832,63.833
152833,66.493
152834,68.370
152835,69.935
152836,71.186
152837,72.594
152838,74.472
152839,76.506
152840,79.009
152841,81.356
152842,83.703
152843,85.737
152844,87.301
152845,88.709
152846,89.804
152847,90.430
152848,90.743
152849,90.743
152850,90.430
152851,89.648
152852,88.396
152853,86.675
152854,84.641
152855,82.295
152856,79.791
152857,77.445
152858,75.567
152859,74.003
152860,72.907
152861,72.125
152862,71.186
152863,70.248
152864,68.996
152865,67.901
152866,66.806
152867,65.711
152868,64.928
152869,64.146
152870,63.520
152871,63.051
152872,62.425
152873,61.799
152874,61.330
152875,60.860
152876,60.548
152877,60.235
152878,59.922
152879,59.609
152880,59.296
152881,58.983
152882,58.514
152883,58.357
152884,58.044
152885,57.888
152886,57.731
152887,57.418
152888,57.262
152889,57.106
152890,56.793
152891,56.480
152892,56.167
152893,55.854
152894,55.541
152895,55.228
152896,54.915
152897,54.446
152898,54.133
152899,53.664
152900,53.194
152901,52.725
152902,52.256
152903,51.786
152904,51.317
152905,50.847
152906,50.535
152907,50.222
152908,49.909
152909,49.752
152910,49.752
152911,49.909
152912,50.378
152913,51.317
152914,52.881
152915,55.541
152916,58.983
152917,62.425
152918,65.711
152919,68.214
152920,70.248
152921,72.125
152922,74.003
152923,76.349
152924,79.009
152925,81.982
152926,84.798
152927,87.458
152928,89.961
152929,91.995
152930,93.716
152931,94.967
152932,96.063
152933,96.688
152934,97.001
152935,96.845
152936,96.219
152937,94.967
152938,93.403
152939,91.369
152940,88.866
152941,86.362
152942,83.546
152943,80.887
152944,78.696
152945,77.132
152946,75.880
152947,74.941
152948,73.846
152949,72.594
152950,71.186
152951,69.935
152952,68.683
152953,67.744
152954,67.119
152955,66.493
152956,65.867
152957,65.241
152958,64.615
152959,63.990
152960,63.364
152961,62.894
152962,62.581
152963,62.269
152964,62.112
152965,61.799
152966,61.486
152967,61.173
152968,60.860
152969,60.548
152970,60.391
152971,60.235
152972,60.078
152973,59.922
152974,59.765
152975,59.452
152976,59.296
152977,58.983
152978,58.670
152979,58.357
152980,58.044
152981,57.731
152982,57.262
152983,56.949
152984,56.480
152985,56.010
152986,55.541
152987,55.072
152988,54.602
152989,54.133
152990,53.820
152991,53.507
152992,53.194
152993,53.038
152994,53.038
152995,53.038
152996,53.194
152997,53.507
152998,54.133
152999,55.228
153000,57.106
153001,59.609
153002,62.581
153003,65.554
153004,68.057
153005,69.935
153006,71.656
153007,73.220
153008,74.941
153009,76.975
153010,79.322
153011,81.512
153012,83.859
153013,85.893
153014,87.770
153015,89.335
153016,90.587
153017,91.525
153018,92.151
153019,92.464
153020,92.464
153021,92.151
153022,91.369
153023,90.117
153024,88.709
153025,86.832
153026,84.641
153027,82.451
153028,80.261
153029,78.227
153030,76.662
153031,75.567
153032,74.472
153033,73.533
153034,72.438
153035,71.499
153036,70.561
153037,69.622
153038,68.996
153039,68.214
153040,67.744
153041,67.119
153042,66.649
153043,66.023
153044,65.554
153045,65.085
153046,64.615
153047,64.302
153048,63.833
153049,63.520
153050,63.051
153051,62.738
153052,62.425
153053,62.112
153054,61.799
153055,61.486
153056,61.330
153057,61.173
153058,61.017
153059,60.860
153060,60.548
153061,60.391
153062,60.235
153063,59.922
153064,59.452
153065,59.139
153066,58.670
153067,58.201
153068,57.731
153069,57.262
153070,56.793
153071,56.323
153072,55.854
153073,55.541
153074,55.228
153075,54.915
153076,54.602
153077,54.133
153078,53.820
153079,53.664
153080,53.507
153081,53.820
153082,54.602
153083,56.323
153084,58.670
153085,61.799
153086,65.241
153087,68.214
153088,70.561
153089,72.125
153090,73.533
153091,74.785
153092,76.506
153093,78.696
153094,81.356
153095,84.172
153096,87.145
153097,89.961
153098,92.308
153099,94.498
153100,96.063
153101,97.314
153102,98.096
153103,98.566
153104,98.566
153105,98.253
153106,97.627
153107,96.375
153108,94.811
153109,92.933
153110,90.743
153111,88.240
153112,85.580
153113,83.233
153114,81.199
153115,79.791
153116,78.696
153117,77.757
153118,76.819
153119,75.724
153120,74.628
153121,73.377
153122,72.282
153123,71.343
153124,70.404
153125,69.778
153126,69.153
153127,68.683
153128,68.057
153129,67.588
153130,67.119
153131,66.649
153132,66.180
153133,65.711
153134,65.241
153135,64.928
153136,64.459
153137,64.146
153138,63.833
153139,63.677
153140,63.364
153141,63.207
153142,63.051
153143,62.738
153144,62.425
153145,62.112
153146,61.799
153147,61.486
153148,61.017
153149,60.548
153150,60.078
153151,59.609
153152,58.983
153153,58.670
153154,58.044
153155,57.731
153156,57.262
153157,56.949
153158,56.636
153159,56.323
153160,55.854
153161,55.541
153162,55.228
153163,55.072
153164,55.072
153165,55.385
153166,56.323
153167,58.044
153168,60.548
153169,63.364
153170,66.493
153171,69.153
153172,71.030
153173,72.438
153174,73.533
153175,74.628
153176,76.193
153177,78.070
153178,80.261
153179,82.764
153180,85.267
153181,87.614
153182,89.491
153183,90.900
153184,91.995
153185,92.777
153186,93.246
153187,93.403
153188,93.090
153189,92.464
153190,91.525
153191,90.117
153192,88.396
153193,86.362
153194,84.016
153195,81.669
153196,79.478
153197,77.914
153198,76.662
153199,75.724
153200,74.941
153201,74.159
153202,73.064
153203,72.125
153204,70.873
153205,69.935
153206,68.996
153207,68.214
153208,67.588
153209,67.119
153210,66.493
153211,65.867
153212,65.398
153213,64.928
153214,64.615
153215,64.302
153216,63.833
153217,63.520
153218,63.207
153219,62.738
153220,62.425
153221,62.112
153222,61.956
153223,61.799
153224,61.486
153225,61.330
153226,61.173
153227,60.860
153228,60.704
153229,60.391
153230,60.078
153231,59.609
153232,59.139
153233,58.670
153234,58.201
153235,57.731
153236,57.262
153237,56.793
153238,56.323
153239,56.010
153240,55.697
153241,55.385
153242,55.072
153243,54.759
153244,54.289
153245,53.977
153246,53.664
153247,53.351
153248,53.507
153249,54.289
153250,55.854
153251,58.357
153252,61.486
153253,64.928
153254,67.901
153255,70.248
153256,71.969
153257,73.220
153258,74.628
153259,76.193
153260,78.383
153261,81.043
153262,84.016
153263,86.988
153264,89.804
153265,92.151
153266,94.185
153267,95.750
153268,97.001
153269,97.627
153270,97.940
153271,97.940
153272,97.627
153273,96.688
153274,95.437
153275,93.716
153276,91.525
153277,88.866
153278,86.049
153279,83.390
153280,80.887
153281,79.009
153282,77.601
153283,76.662
153284,75.880
153285,74.941
153286,73.846
153287,72.594
153288,71.343
153289,70.091
153290,68.996
153291,68.057
153292,67.432
153293,66.649
153294,66.023
153295,65.398
153296,64.928
153297,64.302
153298,63.990
153299,63.520
153300,63.207
153301,62.894
153302,62.581
153303,62.112
153304,61.799
153305,61.486
153306,61.173
153307,60.860
153308,60.704
153309,60.548
153310,60.391
153311,60.078
153312,59.609
153313,59.296
153314,58.983
153315,58.514
153316,58.044
153317,57.731
153318,57.418
153319,56.949
153320,56.480
153321,56.167
153322,55.697
153323,55.228
153324,54.759
153325,54.289
153326,53.664
153327,53.194
153328,52.725
153329,52.412
153330,52.256
153331,52.099
153332,52.099
153333,52.256
153334,52.725
153335,53.664
153336,55.541
153337,58.044
153338,61.173
153339,64.146
153340,66.806
153341,68.840
153342,70.561
153343,71.969
153344,73.533
153345,75.567
153346,77.757
153347,80.104
153348,82.608
153349,84.798
153350,86.675
153351,88.396
153352,89.648
153353,90.587
153354,91.212
153355,91.525
153356,91.369
153357,90.743
153358,89.804
153359,88.553
153360,86.832
153361,84.798
153362,82.451
153363,79.948
153364,77.445
153365,75.567
153366,74.159
153367,73.064
153368,72.125
153369,71.186
153370,69.935
153371,68.683
153372,67.432
153373,66.336
153374,65.554
153375,64.772
153376,64.302
153377,63.677
153378,63.051
153379,62.425
153380,61.799
153381,61.330
153382,60.860
153383,60.704
153384,60.391
153385,60.078
153386,59.765
153387,59.296
153388,58.983
153389,58.827
153390,58.514
153391,58.357
153392,58.201
153393,58.044
153394,57.888
153395,57.731
153396,57.418
153397,57.106
153398,56.949
153399,56.636
153400,56.323
153401,56.010
153402,55.854
153403,55.541
153404,55.228
153405,54.759
153406,54.289
153407,53.664
153408,53.038
153409,52.568
153410,52.099
153411,51.786
153412,51.317
153413,51.004
153414,50.691
153415,50.535
153416,50.535
153417,50.691
153418,50.847
153419,51.317
153420,52.256
153421,53.977
153422,56.480
153423,59.765
153424,63.207
153425,66.336
153426,68.840
153427,70.873
153428,72.751
153429,74.785
153430,77.132
153431,79.791
153432,82.764
153433,85.580
153434,88.240
153435,90.587
153436,92.621
153437,94.185
153438,95.437
153439,96.375
153440,97.001
153441,97.158
153442,97.001
153443,96.375
153444,95.437
153445,94.029
153446,92.151
153447,89.804
153448,87.301
153449,84.485
153450,81.825
153451,79.635
153452,77.914
153453,76.819
153454,75.724
153455,74.628
153456,73.533
153457,72.282
153458,71.186
153459,70.091
153460,69.309
153461,68.840
153462,68.370
153463,67.901
153464,67.432
153465,66.806
153466,66.180
153467,65.711
153468,65.241
153469,64.772
153470,64.459
153471,64.146
153472,63.833
153473,63.520
153474,63.207
153475,62.894
153476,62.738
153477,62.581
153478,62.425
153479,62.269
153480,62.112
153481,61.956
153482,61.799
153483,61.486
153484,61.173
153485,60.704
153486,60.391
153487,59.922
153488,59.609
153489,59.296
153490,58.827
153491,58.357
153492,58.044
153493,57.575
153494,57.106
153495,56.793
153496,56.323
153497,56.010
153498,55.541
153499,55.228
153500,54.915
153501,54.759
153502,54.759
153503,54.915
153504,55.541
153505,56.636
153506,58.357
153507,60.704
153508,63.520
153509,66.336
153510,68.840
153511,70.717
153512,72.125
153513,73.377
153514,74.941
153515,76.662
153516,78.696
153517,81.199
153518,83.546
153519,85.893
153520,87.927
153521,89.648
153522,91.056
153523,92.151
153524,92.933
153525,93.403
153526,93.559
153527,93.559
153528,92.933
153529,91.995
153530,90.743
153531,89.022
153532,86.988
153533,84.798
153534,82.608
153535,80.417
153536,78.540
153537,77.132
153538,76.036
153539,74.941
153540,74.003
153541,72.907
153542,71.812
153543,70.873
153544,69.935
153545,69.309
153546,68.683
153547,68.057
153548,67.432
153549,66.806
153550,66.180
153551,65.554
153552,65.085
153553,64.615
153554,64.302
153555,63.833
153556,63.520
153557,63.051
153558,62.738
153559,62.425
153560,62.112
153561,61.956
153562,61.643
153563,61.486
153564,61.486
153565,61.330
153566,61.173
153567,60.860
153568,60.548
153569,60.235
153570,59.765
153571,59.296
153572,58.983
153573,58.357
153574,58.044
153575,57.575
153576,57.106
153577,56.636
153578,56.167
153579,55.854
153580,55.541
153581,55.228
153582,54.915
153583,54.602
153584,54.289
153585,53.977
153586,53.977
153587,54.289
153588,55.228
153589,56.949
153590,59.609
153591,62.738
153592,66.180
153593,69.153
153594,71.499
153595,73.064
153596,74.315
153597,75.567
153598,77.288
153599,79.478
153600,82.138
153601,85.111
153602,88.083
153603,90.743
153604,92.933
153605,94.967
153606,96.375
153607,97.627
153608,98.409
153609,98.879
153610,98.879
153611,98.566
153612,97.784
153613,96.532
153614,94.967
153615,92.933
153616,90.743
153617,88.240
153618,85.580
153619,83.233
153620,81.356
153621,79.948
153622,78.696
153623,77.914
153624,76.819
153625,75.880
153626,74.628
153627,73.533
153628,72.438
153629,71.499
153630,70.873
153631,70.248
153632,69.778
153633,69.153
153634,68.683
153635,68.057
153636,67.432
153637,66.962
153638,66.649
153639,66.180
153640,65.867
153641,65.554
153642,65.241
153643,64.772
153644,64.459
153645,64.146
153646,63.990
153647,63.677
153648,63.520
153649,63.364
153650,63.051
153651,62.738
153652,62.269
153653,61.956
153654,61.486
153655,61.017
153656,60.548
153657,60.078
153658,59.452
153659,58.983
153660,58.514
153661,58.044
153662,57.731
153663,57.418
153664,57.106
153665,56.793
153666,56.480
153667,56.167
153668,55.854
153669,55.541
153670,55.541
153671,55.854
153672,56.793
153673,58.357
153674,60.860
153675,63.833
153676,66.962
153677,69.622
153678,71.656
153679,73.064
153680,74.315
153681,75.254
153682,76.819
153683,78.696
153684,80.887
153685,83.390
153686,85.893
153687,88.083
153688,89.961
153689,91.369
153690,92.464
153691,93.246
153692,93.559
153693,93.559
153694,93.403
153695,92.777
153696,91.682
153697,90.274
153698,88.396
153699,86.206
153700,83.859
153701,81.512
153702,79.166
153703,77.288
153704,75.880
153705,74.941
153706,74.003
153707,73.064
153708,71.969
153709,70.873
153710,69.622
153711,68.683
153712,67.744
153713,66.962
153714,66.336
153715,65.711
153716,65.085
153717,64.459
153718,63.833
153719,63.364
153720,62.738
153721,62.425
153722,61.956
153723,61.643
153724,61.330
153725,61.017
153726,60.548
153727,60.235
153728,59.922
153729,59.609
153730,59.296
153731,59.139
153732,58.983
153733,58.827
153734,58.514
153735,58.201
153736,57.731
153737,57.262
153738,56.793
153739,56.323
153740,55.854
153741,55.541
153742,55.228
153743,54.759
153744,54.289
153745,53.820
153746,53.351
153747,53.038
153748,52.568
153749,52.256
153750,51.943
153751,51.473
153752,51.317
153753,51.160
153754,51.160
153755,51.630
153756,52.412
153757,53.977
153758,56.323
153759,59.609
153760,63.051
153761,66.336
153762,68.996
153763,71.030
153764,72.751
153765,74.315
153766,76.349
153767,78.696
153768,81.512
153769,84.329
153770,87.145
153771,89.648
153772,91.838
153773,93.559
153774,95.124
153775,96.063
153776,97.001
153777,97.314
153778,97.314
153779,96.688
153780,95.750
153781,94.185
153782,92.308
153783,89.961
153784,87.458
153785,84.641
153786,81.982
153787,79.635
153788,77.914
153789,76.662
153790,75.567
153791,74.628
153792,73.377
153793,72.125
153794,70.717
153795,69.465
153796,68.370
153797,67.588
153798,66.806
153799,66.180
153800,65.554
153801,64.928
153802,64.146
153803,63.520
153804,63.051
153805,62.581
153806,62.269
153807,61.956
153808,61.799
153809,61.486
153810,61.173
153811,61.017
153812,60.704
153813,60.391
153814,60.235
153815,59.922
153816,59.609
153817,59.296
153818,58.983
153819,58.670
153820,58.201
153821,57.888
153822,57.418
153823,57.106
153824,56.793
153825,56.480
153826,56.167
153827,55.854
153828,55.385
153829,54.915
153830,54.289
153831,53.820
153832,53.351
153833,52.725
153834,52.412
153835,51.943
153836,51.786
153837,51.630
153838,51.473
153839,51.473
153840,51.630
153841,51.786
153842,52.412
153843,53.664
153844,55.541
153845,58.357
153846,61.486
153847,64.459
153848,66.962
153849,68.996
153850,70.717
153851,72.438
153852,74.472
153853,76.662
153854,79.166
153855,81.669
153856,84.016
153857,86.206
153858,87.927
153859,89.491
153860,90.587
153861,91.525
153862,92.151
153863,92.464
153864,92.308
153865,91.995
153866,91.056
153867,89.804
153868,88.083
153869,86.049
153870,83.703
153871,81.199
153872,78.853
153873,76.819
153874,75.254
153875,74.159
153876,73.220
153877,72.282
153878,71.030
153879,69.778
153880,68.683
153881,67.588
153882,66.806
153883,66.336
153884,65.867
153885,65.398
153886,64.928
153887,64.302
153888,63.833
153889,63.364
153890,62.894
153891,62.581
153892,62.269
153893,61.956
153894,61.643
153895,61.330
153896,61.173
153897,60.860
153898,60.704
153899,60.548
153900,60.391
153901,60.235
153902,60.078
153903,59.922
153904,59.765
153905,59.452
153906,59.296
153907,59.139
153908,58.827
153909,58.670
153910,58.357
153911,58.044
153912,57.731
153913,57.262
153914,56.793
153915,56.480
153916,56.010
153917,55.541
153918,55.228
153919,54.915
153920,54.602
153921,54.289
153922,54.133
153923,53.820
153924,53.664
153925,53.664
153926,54.133
153927,54.915
153928,56.480
153929,58.670
153930,61.486
153931,64.772
153932,67.744
153933,70.248
153934,72.125
153935,73.533
153936,74.941
153937,76.819
153938,79.009
153939,81.512
153940,84.329
153941,86.988
153942,89.648
153943,91.995
153944,93.872
153945,95.437
153946,96.688
153947,97.471
153948,97.940
153949,98.253
153950,97.940
153951,97.314
153952,96.375
153953,94.967
153954,93.246
153955,91.056
153956,88.396
153957,85.737
153958,83.233
153959,81.199
153960,79.478
153961,78.383
153962,77.445
153963,76.662
153964,75.724
153965,74.785
153966,73.690
153967,72.594
153968,71.812
153969,71.030
153970,70.248
153971,69.622
153972,68.996
153973,68.370
153974,67.588
153975,66.962
153976,66.336
153977,65.867
153978,65.554
153979,65.085
153980,64.772
153981,64.302
153982,63.990
153983,63.677
153984,63.364
153985,63.051
153986,62.894
153987,62.738
153988,62.581
153989,62.425
153990,62.112
153991,61.799
153992,61.486
153993,61.017
153994,60.548
153995,60.078
153996,59.609
153997,58.983
153998,58.670
153999,58.044
154000,57.731
154001,57.262
154002,56.949
154003,56.636
154004,56.167
154005,55.854
154006,55.541
154007,55.228
154008,54.915
154009,54.915
154010,55.072
154011,55.697
154012,57.106
154013,59.139
154014,61.799
154015,64.928
154016,67.744
154017,70.091
154018,71.812
154019,72.907
154020,74.003
154021,75.254
154022,76.975
154023,79.009
154024,81.512
154025,84.016
154026,86.362
154027,88.396
154028,90.117
154029,91.369
154030,92.308
154031,92.933
154032,93.246
154033,93.246
154034,92.933
154035,92.151
154036,91.056
154037,89.491
154038,87.770
154039,85.737
154040,83.390
154041,81.199
154042,79.322
154043,77.757
154044,76.506
154045,75.567
154046,74.785
154047,73.846
154048,72.751
154049,71.656
154050,70.561
154051,69.622
154052,68.840
154053,68.057
154054,67.432
154055,66.962
154056,66.336
154057,65.867
154058,65.398
154059,64.928
154060,64.459
154061,64.146
154062,63.677
154063,63.364
154064,63.051
154065,62.738
154066,62.425
154067,62.269
154068,62.112
154069,61.799
154070,61.486
154071,61.330
154072,61.173
154073,60.860
154074,60.704
154075,60.391
154076,60.078
154077,59.765
154078,59.296
154079,58.827
154080,58.357
154081,57.731
154082,57.262
154083,56.793
154084,56.480
154085,56.167
154086,55.854
154087,55.541
154088,55.228
154089,54.915
154090,54.602
154091,54.289
154092,54.133
154093,54.133
154094,54.602
154095,55.697
154096,57.731
154097,60.704
154098,63.990
154099,67.432
154100,70.404
154101,72.438
154102,74.003
154103,75.098
154104,76.506
154105,78.383
154106,80.730
154107,83.390
154108,86.362
154109,89.179
154110,91.838
154111,94.029
154112,95.906
154113,97.314
154114,98.253
154115,98.879
154116,99.192
154117,98.879
154118,98.409
154119,97.314
154120,95.906
154121,93.872
154122,91.682
154123,89.179
154124,86.519
154125,84.016
154126,81.512
154127,79.635
154128,78.070
154129,76.819
154130,75.880
154131,74.785
154132,73.690
154133,72.438
154134,71.186
154135,70.091
154136,69.309
154137,68.527
154138,67.901
154139,67.275
154140,66.493
154141,65.867
154142,65.241
154143,64.615
154144,63.990
154145,63.677
154146,63.364
154147,62.894
154148,62.581
154149,62.112
154150,61.799
154151,61.330
154152,61.173
154153,61.017
154154,60.860
154155,60.704
154156,60.548
154157,60.235
154158,59.765
154159,59.296
154160,58.670
154161,58.201
154162,57.731
154163,57.418
154164,57.106
154165,56.636
154166,56.167
154167,55.697
154168,55.228
154169,54.759
154170,54.289
154171,53.977
154172,53.507
154173,53.194
154174,52.725
154175,52.412
154176,52.099
154177,51.943
154178,51.943
154179,52.099
154180,52.881
154181,54.289
154182,56.480
154183,59.452
154184,62.581
154185,65.554
154186,67.744
154187,69.622
154188,70.873
154189,72.438
154190,74.159
154191,76.349
154192,78.853
154193,81.356
154194,83.703
154195,85.737
154196,87.458
154197,89.022
154198,90.117
154199,91.056
154200,91.525
154201,91.682
154202,91.525
154203,90.743
154204,89.648
154205,88.240
154206,86.206
154207,84.016
154208,81.512
154209,79.009
154210,76.819
154211,75.098
154212,73.846
154213,72.907
154214,71.969
154215,70.873
154216,69.778
154217,68.527
154218,67.275
154219,66.180
154220,65.398
154221,64.615
154222,63.990
154223,63.520
154224,62.894
154225,62.269
154226,61.643
154227,61.017
154228,60.548
154229,60.235
154230,59.922
154231,59.765
154232,59.452
154233,58.983
154234,58.670
154235,58.357
154236,58.044
154237,57.731
154238,57.575
154239,57.418
154240,57.262
154241,57.106
154242,56.793
154243,56.636
154244,56.323
154245,56.010
154246,55.697
154247,55.385
154248,55.072
154249,54.759
154250,54.289
154251,53.977
154252,53.664
154253,53.038
154254,52.725
154255,52.099
154256,51.786
154257,51.317
154258,51.004
154259,50.691
154260,50.378
154261,50.065
154262,49.909
154263,49.909
154264,50.065
154265,50.222
154266,51.004
154267,52.256
154268,54.446
154269,57.575
154270,61.017
154271,64.459
154272,67.432
154273,69.622
154274,71.499
154275,73.377
154276,75.567
154277,78.070
154278,81.043
154279,84.016
154280,86.832
154281,89.335
154282,91.682
154283,93.559
154284,94.967
154285,96.063
154286,97.001
154287,97.471
154288,97.627
154289,97.158
154290,96.375
154291,95.280
154292,93.716
154293,91.682
154294,89.335
154295,86.675
154296,84.172
154297,81.669
154298,79.635
154299,78.070
154300,76.819
154301,75.880
154302,74.628
154303,73.377
154304,72.125
154305,70.873
154306,69.935
154307,69.153
154308,68.527
154309,68.057
154310,67.432
154311,66.806
154312,66.180
154313,65.711
154314,65.241
154315,64.772
154316,64.459
154317,64.146
154318,63.833
154319,63.520
154320,63.207
154321,62.894
154322,62.581
154323,62.425
154324,62.269
154325,62.112
154326,61.956
154327,61.799
154328,61.643
154329,61.486
154330,61.173
154331,60.860
154332,60.548
154333,60.235
154334,59.922
154335,59.609
154336,59.139
154337,58.827
154338,58.514
154339,58.044
154340,57.575
154341,57.106
154342,56.636
154343,56.167
154344,55.854
154345,55.541
154346,55.228
154347,54.915
154348,54.602
154349,54.289
154350,54.289
154351,54.759
154352,55.541
154353,56.949
154354,58.983
154355,61.643
154356,64.459
154357,67.119
154358,69.309
154359,70.873
154360,72.125
154361,73.220
154362,74.785
154363,76.662
154364,78.853
154365,81.199
154366,83.703
154367,85.893
154368,87.927
154369,89.491
154370,90.900
154371,91.995
154372,92.621
154373,92.777
154374,92.621
154375,92.308
154376,91.525
154377,90.430
154378,89.179
154379,87.458
154380,85.424
154381,83.077
154382,80.887
154383,78.696
154384,77.132
154385,75.880
154386,74.941
154387,74.159
154388,73.064
154389,72.125
154390,71.030
154391,69.935
154392,68.996
154393,68.214
154394,67.588
154395,66.962
154396,66.493
154397,65.867
154398,65.241
154399,64.615
154400,64.146
154401,63.677
154402,63.364
154403,63.051
154404,62.738
154405,62.425
154406,62.112
154407,61.799
154408,61.486
154409,61.330
154410,61.017
154411,60.860
154412,60.548
154413,60.391
154414,60.235
154415,60.078
154416,59.922
154417,59.609
154418,59.139
154419,58.827
154420,58.357
154421,57.888
154422,57.418
154423,56.949
154424,56.480
154425,56.010
154426,55.697
154427,55.228
154428,54.915
154429,54.759
154430,54.446
154431,54.133
154432,53.820
154433,53.507
154434,53.351
154435,53.507
154436,54.133
154437,55.541
154438,57.731
154439,60.704
154440,64.146
154441,67.275
154442,69.935
154443,71.812
154444,73.064
154445,74.315
154446,75.724
154447,77.601
154448,80.104
154449,82.920
154450,85.893
154451,88.709
154452,91.212
154453,93.246
154454,94.967
154455,96.219
154456,97.158
154457,97.784
154458,97.940
154459,97.940
154460,97.314
154461,96.532
154462,95.280
154463,93.559
154464,91.369
154465,88.866
154466,86.362
154467,83.859
154468,81.669
154469,80.104
154470,78.853
154471,77.914
154472,76.975
154473,75.880
154474,74.785
154475,73.690
154476,72.594
154477,71.656
154478,71.030
154479,70.404
154480,69.778
154481,68.996
154482,68.370
154483,67.744
154484,66.962
154485,66.493
154486,66.023
154487,65.554
154488,65.241
154489,64.928
154490,64.459
154491,64.146
154492,63.833
154493,63.520
154494,63.364
154495,63.051
154496,62.738
154497,62.581
154498,62.425
154499,62.112
154500,61.799
154501,61.486
154502,61.173
154503,60.704
154504,60.235
154505,59.609
154506,59.139
154507,58.670
154508,58.044
154509,57.731
154510,57.262
154511,56.793
154512,56.480
154513,56.167
154514,55.854
154515,55.541
154516,55.228
154517,54.915
154518,54.759
154519,54.602
154520,54.915
154521,55.541
154522,56.949
154523,59.296
154524,62.112
154525,64.928
154526,67.744
154527,69.778
154528,71.186
154529,72.125
154530,73.064
154531,74.315
154532,76.193
154533,78.383
154534,80.730
154535,83.077
154536,85.424
154537,87.458
154538,89.022
154539,90.274
154540,91.056
154541,91.682
154542,91.682
154543,91.682
154544,91.056
154545,90.117
154546,88.866
154547,87.301
154548,85.267
154549,82.920
154550,80.574
154551,78.227
154552,76.193
154553,74.785
154554,73.690
154555,72.751
154556,71.812
154557,70.873
154558,69.622
154559,68.527
154560,67.432
154561,66.493
154562,65.711
154563,64.928
154564,64.302
154565,63.677
154566,63.207
154567,62.738
154568,62.269
154569,61.956
154570,61.486
154571,61.173
154572,60.704
154573,60.235
154574,59.922
154575,59.452
154576,59.139
154577,58.827
154578,58.514
154579,58.357
154580,58.044
154581,57.888
154582,57.731
154583,57.575
154584,57.262
154585,56.793
154586,56.480
154587,56.167
154588,55.697
154589,55.385
154590,55.072
154591,54.602
154592,54.289
154593,53.820
154594,53.351
154595,53.038
154596,52.412
154597,52.099
154598,51.786
154599,51.317
154600,51.004
154601,50.691
154602,50.222
154603,50.065
154604,50.065
154605,50.065
154606,50.691
154607,51.630
154608,53.507
154609,56.167
154610,59.452
154611,62.894
154612,65.867
154613,68.370
154614,70.248
154615,71.969
154616,73.846
154617,76.036
154618,78.696
154619,81.512
154620,84.329
154621,86.988
154622,89.491
154623,91.525
154624,93.403
154625,94.811
154626,95.906
154627,96.532
154628,96.845
154629,96.532
154630,95.906
154631,94.811
154632,93.246
154633,91.369
154634,89.179
154635,86.519
154636,83.703
154637,81.043
154638,78.696
154639,76.975
154640,75.724
154641,74.628
154642,73.690
154643,72.438
154644,71.186
154645,69.935
154646,68.683
154647,67.744
154648,66.962
154649,66.336
154650,65.711
154651,65.085
154652,64.302
154653,63.677
154654,62.894
154655,62.425
154656,61.799
154657,61.486
154658,61.173
154659,60.860
154660,60.391
154661,60.078
154662,59.765
154663,59.452
154664,59.296
154665,58.983
154666,58.827
154667,58.670
154668,58.357
154669,58.201
154670,57.888
154671,57.575
154672,57.262
154673,56.793
154674,56.480
154675,56.323
154676,56.010
154677,55.697
154678,55.385
154679,54.915
154680,54.602
154681,53.977
154682,53.507
154683,53.038
154684,52.568
154685,52.099
154686,51.630
154687,51.317
154688,51.160
154689,51.004
154690,50.847
154691,50.847
154692,51.004
154693,51.473
154694,52.099
154695,53.507
154696,55.697
154697,58.514
154698,61.643
154699,64.459
154700,66.962
154701,68.840
154702,70.561
154703,72.282
154704,74.159
154705,76.349
154706,78.696
154707,81.199
154708,83.546
154709,85.580
154710,87.301
154711,88.709
154712,89.804
154713,90.743
154714,91.369
154715,91.682
154716,91.525
154717,90.900
154718,89.961
154719,88.709
154720,86.988
154721,84.954
154722,82.608
154723,80.104
154724,77.757
154725,75.880
154726,74.628
154727,73.690
154728,72.751
154729,71.812
154730,70.561
154731,69.309
154732,68.214
154733,67.275
154734,66.493
154735,65.867
154736,65.398
154737,64.928
154738,64.459
154739,63.833
154740,63.364
154741,62.894
154742,62.425
154743,62.112
154744,61.799
154745,61.486
154746,61.173
154747,61.017
154748,60.704
154749,60.548
154750,60.548
154751,60.391
154752,60.235
154753,60.078
154754,59.922
154755,59.765
154756,59.609
154757,59.452
154758,59.296
154759,58.983
154760,58.670
154761,58.514
154762,58.201
154763,57.888
154764,57.575
154765,57.106
154766,56.793
154767,56.167
154768,55.854
154769,55.385
154770,55.072
154771,54.759
154772,54.446
154773,54.133
154774,53.664
154775,53.507
154776,53.194
154777,53.194
154778,53.507
154779,54.133
154780,55.541
154781,57.731
154782,60.548
154783,63.677
154784,66.649
154785,68.996
154786,70.873
154787,72.438
154788,73.690
154789,75.254
154790,77.445
154791,79.791
154792,82.608
154793,85.424
154794,88.083
154795,90.587
154796,92.621
154797,94.342
154798,95.750
154799,96.688
154800,97.158
154801,97.471
154802,97.314
154803,96.688
154804,95.750
154805,94.498
154806,92.777
154807,90.587
154808,88.083
154809,85.424
154810,83.077
154811,80.887
154812,79.322
154813,78.070
154814,77.132
154815,76.193
154816,75.254
154817,74.159
154818,73.064
154819,72.125
154820,71.186
154821,70.404
154822,69.622
154823,69.153
154824,68.527
154825,67.744
154826,67.119
154827,66.493
154828,65.867
154829,65.398
154830,64.928
154831,64.615
154832,64.302
154833,63.990
154834,63.677
154835,63.364
154836,62.894
154837,62.581
154838,62.425
154839,62.112
154840,61.956
154841,61.799
154842,61.486
154843,61.173
154844,60.860
154845,60.548
154846,60.078
154847,59.609
154848,59.139
154849,58.670
154850,58.201
154851,57.731
154852,57.262
154853,56.949
154854,56.480
154855,56.167
154856,55.854
154857,55.541
154858,55.228
154859,54.915
154860,54.759
154861,54.602
154862,54.602
154863,54.915
154864,55.854
154865,57.418
154866,59.609
154867,62.425
154868,65.398
154869,68.057
154870,69.935
154871,71.343
154872,72.438
154873,73.533
154874,74.941
154875,76.819
154876,79.166
154877,81.669
154878,84.172
154879,86.362
154880,88.240
154881,89.961
154882,91.212
154883,92.151
154884,92.777
154885,93.090
154886,92.933
154887,92.308
154888,91.369
154889,89.961
154890,88.240
154891,86.362
154892,84.172
154893,81.825
154894,79.791
154895,77.914
154896,76.349
154897,75.254
154898,74.472
154899,73.690
154900,72.751
154901,71.812
154902,70.717
154903,69.622
154904,68.840
154905,68.057
154906,67.432
154907,66.806
154908,66.180
154909,65.554
154910,65.085
154911,64.615
154912,63.990
154913,63.677
154914,63.364
154915,62.894
154916,62.581
154917,62.112
154918,61.799
154919,61.486
154920,61.330
154921,61.017
154922,60.860
154923,60.548
154924,60.235
154925,60.078
154926,59.922
154927,59.765
154928,59.452
154929,59.139
154930,58.827
154931,58.357
154932,57.888
154933,57.418
154934,56.793
154935,56.167
154936,55.697
154937,55.228
154938,54.759
154939,54.446
154940,54.133
154941,53.664
154942,53.351
154943,52.881
154944,52.412
154945,52.099
154946,52.099
154947,52.099
154948,52.881
154949,54.289
154950,56.793
154951,59.765
154952,63.051
154953,66.180
154954,68.527
154955,70.248
154956,71.499
154957,72.751
154958,74.315
154959,76.506
154960,79.009
154961,81.825
154962,84.485
154963,87.145
154964,89.491
154965,91.525
154966,93.090
154967,94.185
154968,94.967
154969,95.280
154970,95.437
154971,95.124
154972,94.342
154973,93.090
154974,91.525
154975,89.491
154976,86.988
154977,84.485
154978,81.825
154979,79.322
154980,77.445
154981,76.036
154982,74.941
154983,74.315
154984,73.377
154985,72.438
154986,71.343
154987,70.091
154988,68.996
154989,67.901
154990,66.962
154991,66.336
154992,65.711
154993,65.085
154994,64.459
154995,63.677
154996,63.051
154997,62.581
154998,62.112
154999,61.799
155000,61.643
155001,61.330
155002,60.860
155003,60.548
155004,60.235
155005,59.765
155006,59.452
155007,59.296
155008,58.983
155009,58.827
155010,58.670
155011,58.357
155012,58.044
155013,57.731
155014,57.262
155015,56.793
155016,56.480
155017,56.010
155018,55.697
155019,55.228
155020,54.915
155021,54.289
155022,53.820
155023,53.351
155024,52.881
155025,52.412
155026,51.943
155027,51.473
155028,51.004
155029,50.691
155030,50.535
155031,50.535
155032,50.535
155033,50.691
155034,51.317
155035,52.256
155036,53.977
155037,56.636
155038,59.765
155039,62.894
155040,65.554
155041,67.588
155042,69.153
155043,70.561
155044,72.125
155045,74.159
155046,76.349
155047,78.696
155048,81.199
155049,83.390
155050,85.267
155051,86.988
155052,88.240
155053,89.179
155054,89.804
155055,90.117
155056,89.961
155057,89.491
155058,88.553
155059,87.301
155060,85.580
155061,83.703
155062,81.356
155063,79.009
155064,76.662
155065,74.628
155066,73.064
155067,71.969
155068,71.030
155069,69.935
155070,68.840
155071,67.744
155072,66.493
155073,65.554
155074,64.615
155075,63.990
155076,63.364
155077,63.051
155078,62.581
155079,62.112
155080,61.486
155081,60.860
155082,60.235
155083,59.765
155084,59.296
155085,58.983
155086,58.827
155087,58.514
155088,58.357
155089,58.201
155090,58.044
155091,57.731
155092,57.575
155093,57.418
155094,57.262
155095,56.949
155096,56.793
155097,56.480
155098,56.167
155099,55.697
155100,55.385
155101,55.228
155102,54.915
155103,54.759
155104,54.602
155105,54.133
155106,53.664
155107,53.194
155108,52.725
155109,52.099
155110,51.786
155111,51.317
155112,51.160
155113,50.847
155114,50.691
155115,50.535
155116,50.535
155117,50.378
155118,50.535
155119,50.691
155120,51.473
155121,52.725
155122,55.072
155123,58.201
155124,61.799
155125,65.241
155126,68.057
155127,70.248
155128,72.125
155129,73.690
155130,75.567
155131,77.757
155132,80.261
155133,82.920
155134,85.424
155135,87.770
155136,89.961
155137,91.995
155138,93.559
155139,94.967
155140,96.063
155141,96.532
155142,96.532
155143,96.219
155144,95.437
155145,94.185
155146,92.621
155147,90.743
155148,88.396
155149,85.893
155150,83.546
155151,81.199
155152,79.478
155153,78.070
155154,77.132
155155,76.193
155156,75.098
155157,74.003
155158,72.751
155159,71.499
155160,70.561
155161,69.935
155162,69.465
155163,69.153
155164,68.683
155165,68.214
155166,67.588
155167,66.649
155168,65.711
155169,64.928
155170,64.302
155171,63.677
155172,63.364
155173,63.207
155174,63.051
155175,62.738
155176,62.269
155177,61.486
155178,61.017
155179,60.704
155180,60.548
155181,60.860
155182,61.173
155183,61.486
155184,61.643
155185,61.330
155186,60.704
155187,60.235
155188,59.765
155189,59.296
155190,58.983
155191,58.514
155192,57.888
155193,57.575
155194,57.731
155195,58.044
155196,58.044
155197,57.888
155198,57.575
155199,56.793
155200,56.167
155201,55.541
155202,54.759
155203,53.820
155204,53.351
155205,54.602
155206,57.418
155207,60.548
155208,63.051
155209,65.398
155210,68.057
155211,70.561
155212,72.282
155213,73.377
155214,74.315
155215,75.724
155216,77.445
155217,79.322
155218,81.825
155219,84.329
155220,86.675
155221,88.866
155222,90.743
155223,92.933
155224,94.654
155225,95.750
155226,96.063
155227,95.593
155228,94.185
155229,91.995
155230,89.804
155231,88.709
155232,88.396
155233,87.927
155234,86.675
155235,84.485
155236,81.669
155237,78.853
155238,76.662
155239,75.567
155240,74.941
155241,74.315
155242,73.533
155243,72.438
155244,70.873
155245,69.309
155246,67.901
155247,67.119
155248,66.962
155249,66.962
155250,67.119
155251,66.806
155252,66.493
155253,65.867
155254,65.398
155255,65.085
155256,64.772
155257,63.990
155258,62.894
155259,61.799
155260,61.173
155261,60.860
155262,60.704
155263,60.704
155264,61.173
155265,61.330
155266,61.330
155267,61.173
155268,60.860
155269,60.860
155270,60.548
155271,60.548
155272,60.548
155273,60.548
155274,60.548
155275,60.235
155276,59.452
155277,58.670
155278,58.201
155279,57.575
155280,56.949
155281,56.167
155282,55.541
155283,54.915
155284,54.446
155285,54.289
155286,54.289
155287,54.602
155288,55.228
155289,56.167
155290,58.201
155291,61.173
155292,64.615
155293,68.057
155294,71.186
155295,73.220
155296,74.315
155297,74.472
155298,74.941
155299,76.193
155300,78.383
155301,81.043
155302,83.703
155303,86.206
155304,88.709
155305,91.056
155306,93.090
155307,94.967
155308,96.532
155309,97.471
155310,97.940
155311,97.784
155312,97.314
155313,96.688
155314,95.750
155315,94.342
155316,92.464
155317,89.804
155318,86.832
155319,83.859
155320,81.512
155321,79.791
155322,78.853
155323,78.540
155324,78.383
155325,77.757
155326,76.662
155327,75.254
155328,73.846
155329,72.751
155330,72.282
155331,71.969
155332,71.656
155333,71.030
155334,69.935
155335,68.683
155336,67.588
155337,66.493
155338,66.023
155339,65.554
155340,65.241
155341,64.772
155342,64.146
155343,63.364
155344,62.738
155345,61.956
155346,61.486
155347,61.017
155348,60.548
155349,60.235
155350,59.922
155351,59.765
155352,59.452
155353,59.296
155354,59.139
155355,58.983
155356,58.670
155357,58.357
155358,58.044
155359,57.575
155360,56.793
155361,56.010
155362,55.385
155363,54.915
155364,54.446
155365,53.977
155366,53.351
155367,53.038
155368,52.881
155369,52.412
155370,51.630
155371,51.160
155372,51.160
155373,51.630
155374,52.725
155375,54.602
155376,57.262
155377,60.548
155378,64.146
155379,67.275
155380,69.778
155381,71.499
155382,72.594
155383,73.690
155384,75.098
155385,76.819
155386,78.853
155387,81.043
155388,83.077
155389,84.641
155390,85.893
155391,86.988
155392,87.927
155393,89.022
155394,89.961
155395,90.430
155396,90.274
155397,89.804
155398,88.709
155399,86.988
155400,84.641
155401,81.825
155402,79.009
155403,76.349
155404,74.472
155405,73.064
155406,72.125
155407,71.186
155408,70.248
155409,68.996
155410,68.057
155411,67.119
155412,66.336
155413,65.711
155414,65.085
155415,64.302
155416,63.520
155417,62.738
155418,61.799
155419,61.173
155420,60.860
155421,60.391
155422,60.078
155423,59.765
155424,59.452
155425,59.296
155426,59.296
155427,59.296
155428,59.452
155429,59.452
155430,59.296
155431,58.827
155432,58.357
155433,57.731
155434,57.418
155435,57.106
155436,56.949
155437,56.949
155438,56.949
155439,56.793
155440,56.480
155441,56.010
155442,55.385
155443,54.602
155444,53.507
155445,52.412
155446,51.630
155447,51.160
155448,51.004
155449,51.160
155450,51.004
155451,50.691
155452,50.222
155453,49.752
155454,49.283
155455,48.970
155456,49.126
155457,49.283
155458,49.752
155459,50.222
155460,51.160
155461,52.881
155462,55.385
155463,58.357
155464,61.486
155465,64.615
155466,67.901
155467,71.812
155468,74.785
155469,76.036
155470,76.349
155471,77.132
155472,79.478
155473,82.920
155474,86.675
155475,90.117
155476,92.621
155477,94.029
155478,94.654
155479,94.811
155480,94.654
155481,94.185
155482,93.559
155483,92.621
155484,91.369
155485,89.491
155486,87.145
155487,84.641
155488,82.295
155489,80.104
155490,78.383
155491,76.975
155492,75.880
155493,74.628
155494,73.377
155495,71.812
155496,70.404
155497,69.153
155498,68.214
155499,67.432
155500,66.962
155501,66.336
155502,65.711
155503,64.928
155504,64.302
155505,63.520
155506,63.051
155507,62.425
155508,61.799
155509,61.330
155510,61.017
155511,60.704
155512,60.548
155513,60.391
155514,60.235
155515,59.922
155516,59.452
155517,59.296
155518,59.139
155519,58.983
155520,58.983
155521,58.670
155522,58.357
155523,58.044
155524,57.575
155525,57.106
155526,56.636
155527,56.167
155528,55.854
155529,55.541
155530,55.228
155531,54.915
155532,54.446
155533,53.977
155534,53.664
155535,53.351
155536,53.194
155537,53.038
155538,53.194
155539,53.507
155540,54.289
155541,55.854
155542,58.357
155543,61.173
155544,64.146
155545,66.806
155546,68.840
155547,70.404
155548,71.499
155549,72.751
155550,74.315
155551,75.880
155552,77.757
155553,79.635
155554,81.043
155555,82.295
155556,83.077
155557,83.390
155558,83.390
155559,83.077
155560,82.764
155561,82.138
155562,81.356
155563,80.417
155564,79.322
155565,78.070
155566,76.506
155567,74.941
155568,73.533
155569,72.282
155570,71.343
155571,70.717
155572,70.091
155573,69.309
155574,68.370
155575,67.275
155576,66.180
155577,65.085
155578,64.302
155579,63.520
155580,62.894
155581,62.425
155582,61.956
155583,61.643
155584,61.173
155585,60.860
155586,60.391
155587,59.922
155588,59.452
155589,59.139
155590,58.670
155591,58.357
155592,58.044
155593,57.731
155594,57.418
155595,57.262
155596,57.106
155597,56.793
155598,56.636
155599,56.323
155600,56.010
155601,55.854
155602,55.541
155603,55.385
155604,55.072
155605,54.759
155606,54.446
155607,54.289
155608,53.977
155609,53.820
155610,53.507
155611,53.351
155612,53.038
155613,52.881
155614,52.412
155615,52.099
155616,51.630
155617,51.317
155618,51.004
155619,50.691
155620,50.378
155621,50.065
155622,49.752
155623,49.439
155624,49.126
155625,48.970
155626,48.814
155627,49.126
155628,49.596
155629,50.847
155630,53.038
155631,56.323
155632,60.078
155633,63.990
155634,67.275
155635,69.622
155636,71.343
155637,72.751
155638,74.315
155639,76.349
155640,79.009
155641,82.451
155642,86.362
155643,90.430
155644,94.029
155645,97.158
155646,99.505
155647,101.069
155648,102.164
155649,102.946
155650,103.572
155651,103.885
155652,104.042
155653,103.729
155654,103.103
155655,102.008
155656,100.287
155657,98.096
155658,95.437
155659,92.621
155660,89.648
155661,86.988
155662,84.954
155663,83.390
155664,82.138
155665,81.043
155666,79.948
155667,78.696
155668,77.288
155669,75.880
155670,74.628
155671,73.377
155672,72.594
155673,71.812
155674,71.186
155675,70.561
155676,69.935
155677,69.153
155678,68.527
155679,67.901
155680,67.432
155681,66.806
155682,66.493
155683,65.867
155684,65.554
155685,65.085
155686,64.615
155687,64.459
155688,64.146
155689,63.990
155690,63.677
155691,63.520
155692,63.207
155693,62.738
155694,62.425
155695,61.956
155696,61.486
155697,61.173
155698,60.548
155699,60.078
155700,59.609
155701,58.983
155702,58.514
155703,58.044
155704,57.731
155705,57.262
155706,56.949
155707,56.636
155708,56.323
155709,56.010
155710,55.697
155711,55.541
155712,55.385
155713,55.541
155714,56.167
155715,57.418
155716,59.296
155717,61.486
155718,63.990
155719,66.180
155720,68.057
155721,69.309
155722,70.248
155723,71.030
155724,72.125
155725,73.690
155726,75.411
155727,77.288
155728,79.166
155729,80.887
155730,82.295
155731,83.546
155732,84.329
155733,84.954
155734,85.267
155735,85.267
155736,84.798
155737,84.172
155738,83.077
155739,81.825
155740,79.948
155741,78.070
155742,76.036
155743,74.003
155744,72.438
155745,71.186
155746,70.248
155747,69.622
155748,68.996
155749,68.057
155750,67.119
155751,66.180
155752,65.085
155753,64.146
155754,63.364
155755,62.738
155756,61.956
155757,61.330
155758,60.704
155759,60.078
155760,59.609
155761,58.983
155762,58.670
155763,58.201
155764,57.888
155765,57.418
155766,57.106
155767,56.636
155768,56.323
155769,56.010
155770,55.697
155771,55.541
155772,55.228
155773,55.072
155774,54.915
155775,54.759
155776,54.602
155777,54.289
155778,53.977
155779,53.507
155780,53.194
155781,52.725
155782,52.412
155783,51.943
155784,51.630
155785,51.160
155786,50.691
155787,50.222
155788,49.752
155789,49.439
155790,49.126
155791,48.814
155792,48.501
155793,48.188
155794,47.875
155795,47.875
155796,47.875
155797,48.188
155798,49.126
155799,50.847
155800,53.351
155801,56.793
155802,60.548
155803,63.833
155804,66.336
155805,68.214
155806,69.622
155807,71.186
155808,73.220
155809,75.724
155810,78.696
155811,81.669
155812,84.641
155813,87.301
155814,89.648
155815,91.682
155816,93.246
155817,94.498
155818,95.437
155819,95.906
155820,95.906
155821,95.593
155822,94.811
155823,93.716
155824,92.151
155825,90.117
155826,87.770
155827,85.111
155828,82.451
155829,79.948
155830,77.914
155831,76.506
155832,75.411
155833,74.315
155834,73.220
155835,72.125
155836,70.873
155837,69.622
155838,68.370
155839,67.432
155840,66.649
155841,66.023
155842,65.398
155843,64.772
155844,64.146
155845,63.364
155846,62.738
155847,62.112
155848,61.486
155849,61.017
155850,60.548
155851,60.235
155852,59.922
155853,59.452
155854,59.139
155855,58.827
155856,58.357
155857,58.044
155858,57.731
155859,57.418
155860,57.106
155861,56.949
155862,56.636
155863,56.480
155864,56.167
155865,55.854
155866,55.385
155867,55.228
155868,54.915
155869,54.602
155870,54.133
155871,53.664
155872,53.038
155873,52.568
155874,51.943
155875,51.473
155876,51.004
155877,50.691
155878,50.378
155879,50.222
155880,50.065
155881,49.909
155882,49.909
155883,49.909
155884,50.065
155885,50.378
155886,51.473
155887,53.038
155888,55.541
155889,58.357
155890,61.173
155891,63.364
155892,65.241
155893,66.806
155894,68.370
155895,69.935
155896,71.812
155897,74.003
155898,76.193
155899,78.227
155900,80.261
155901,81.825
155902,83.077
155903,84.172
155904,84.954
155905,85.424
155906,85.424
155907,85.424
155908,84.798
155909,84.016
155910,82.764
155911,81.199
155912,79.322
155913,77.132
155914,74.941
155915,72.907
155916,71.343
155917,70.248
155918,69.622
155919,68.840
155920,67.901
155921,66.806
155922,65.554
155923,64.302
155924,63.520
155925,62.738
155926,62.425
155927,61.956
155928,61.486
155929,60.860
155930,60.235
155931,59.609
155932,59.296
155933,58.983
155934,58.670
155935,58.670
155936,58.514
155937,58.357
155938,58.357
155939,58.201
155940,58.201
155941,58.044
155942,58.044
155943,58.044
155944,58.044
155945,57.888
155946,57.888
155947,57.731
155948,57.731
155949,57.575
155950,57.418
155951,57.106
155952,56.949
155953,56.793
155954,56.480
155955,56.167
155956,55.854
155957,55.385
155958,54.915
155959,54.602
155960,54.289
155961,53.977
155962,53.507
155963,53.038
155964,52.725
155965,52.412
155966,52.099
155967,51.943
155968,51.943
155969,52.412
155970,53.194
155971,54.915
155972,57.106
155973,60.078
155974,63.051
155975,65.867
155976,68.057
155977,69.778
155978,71.186
155979,72.594
155980,74.159
155981,76.193
155982,78.696
155983,81.199
155984,84.016
155985,86.519
155986,88.866
155987,91.056
155988,92.777
155989,94.029
155990,94.967
155991,95.593
155992,95.750
155993,95.593
155994,95.124
155995,94.185
155996,92.777
155997,91.212
155998,89.179
155999,86.988
156000,84.485
156001,82.138
156002,80.104
156003,78.540
156004,77.288
156005,76.193
156006,75.254
156007,74.159
156008,73.064
156009,71.969
156010,71.030
156011,70.091
156012,69.153
156013,68.370
156014,67.744
156015,67.119
156016,66.493
156017,65.867
156018,65.241
156019,64.615
156020,64.146
156021,63.677
156022,63.207
156023,62.894
156024,62.425
156025,62.112
156026,61.643
156027,61.330
156028,61.173
156029,60.860
156030,60.704
156031,60.548
156032,60.235
156033,60.078
156034,59.765
156035,59.609
156036,59.296
156037,58.827
156038,58.357
156039,57.888
156040,57.418
156041,56.949
156042,56.480
156043,56.010
156044,55.541
156045,55.228
156046,54.915
156047,54.602
156048,54.289
156049,53.820
156050,53.507
156051,53.351
156052,53.194
156053,53.351
156054,53.820
156055,54.915
156056,56.636
156057,59.139
156058,61.956
156059,64.615
156060,66.649
156061,68.214
156062,69.309
156063,70.248
156064,71.499
156065,72.907
156066,74.785
156067,76.819
156068,79.009
156069,81.199
156070,83.077
156071,84.798
156072,86.049
156073,86.988
156074,87.614
156075,87.927
156076,87.927
156077,87.770
156078,87.145
156079,86.206
156080,84.954
156081,83.390
156082,81.669
156083,79.635
156084,77.601
156085,75.724
156086,74.315
156087,73.220
156088,72.438
156089,71.656
156090,70.873
156091,69.935
156092,68.996
156093,67.901
156094,66.962
156095,66.180
156096,65.554
156097,64.928
156098,64.459
156099,63.833
156100,63.364
156101,62.738
156102,62.269
156103,61.799
156104,61.486
156105,61.017
156106,60.548
156107,60.235
156108,59.922
156109,59.609
156110,59.296
156111,58.983
156112,58.827
156113,58.670
156114,58.514
156115,58.357
156116,58.044
156117,57.888
156118,57.575
156119,57.262
156120,56.949
156121,56.636
156122,56.167
156123,55.854
156124,55.228
156125,54.759
156126,54.289
156127,53.820
156128,53.507
156129,53.194
156130,52.881
156131,52.725
156132,52.412
156133,52.099
156134,51.943
156135,51.630
156136,51.473
156137,51.786
156138,52.412
156139,54.133
156140,56.480
156141,59.765
156142,63.207
156143,66.180
156144,68.683
156145,70.248
156146,71.343
156147,72.438
156148,74.003
156149,76.036
156150,78.540
156151,81.512
156152,84.485
156153,87.301
156154,89.804
156155,91.995
156156,93.559
156157,94.811
156158,95.750
156159,96.219
156160,96.375
156161,96.219
156162,95.593
156163,94.498
156164,93.090
156165,91.369
156166,89.179
156167,86.832
156168,84.485
156169,82.295
156170,80.417
156171,78.853
156172,77.757
156173,76.662
156174,75.724
156175,74.628
156176,73.377
156177,71.969
156178,70.717
156179,69.622
156180,68.527
156181,67.744
156182,66.962
156183,66.336
156184,65.554
156185,64.928
156186,64.302
156187,63.677
156188,63.207
156189,62.738
156190,62.269
156191,61.799
156192,61.486
156193,61.017
156194,60.704
156195,60.235
156196,59.922
156197,59.609
156198,59.296
156199,58.983
156200,58.827
156201,58.514
156202,58.201
156203,57.731
156204,57.262
156205,56.793
156206,56.167
156207,55.697
156208,55.228
156209,54.915
156210,54.289
156211,53.820
156212,53.351
156213,52.881
156214,52.412
156215,52.099
156216,51.786
156217,51.317
156218,51.004
156219,50.691
156220,50.378
156221,50.378
156222,50.378
156223,50.691
156224,51.630
156225,53.194
156226,55.541
156227,58.514
156228,61.330
156229,63.833
156230,65.711
156231,67.119
156232,68.370
156233,69.622
156234,71.186
156235,73.220
156236,75.411
156237,77.757
156238,79.948
156239,81.982
156240,83.703
156241,84.954
156242,86.049
156243,86.832
156244,87.301
156245,87.458
156246,87.301
156247,86.519
156248,85.424
156249,84.016
156250,81.982
156251,79.791
156252,77.445
156253,75.098
156254,73.220
156255,71.812
156256,70.873
156257,69.935
156258,69.153
156259,68.214
156260,67.119
156261,65.867
156262,64.772
156263,63.677
156264,62.894
156265,62.269
156266,61.643
156267,61.173
156268,60.548
156269,59.922
156270,59.296
156271,58.827
156272,58.357
156273,58.044
156274,57.731
156275,57.418
156276,57.106
156277,56.793
156278,56.480
156279,56.167
156280,55.697
156281,55.385
156282,55.072
156283,54.915
156284,54.602
156285,54.602
156286,54.446
156287,54.289
156288,54.133
156289,53.820
156290,53.507
156291,53.038
156292,52.725
156293,52.412
156294,52.099
156295,51.786
156296,51.473
156297,51.004
156298,50.535
156299,50.065
156300,49.596
156301,49.283
156302,48.814
156303,48.501
156304,48.031
156305,47.718
156306,47.562
156307,47.562
156308,47.718
156309,47.875
156310,48.501
156311,49.752
156312,51.630
156313,54.602
156314,58.044
156315,61.330
156316,64.302
156317,66.493
156318,68.214
156319,69.935
156320,71.812
156321,74.315
156322,77.132
156323,80.104
156324,83.077
156325,85.737
156326,88.240
156327,90.274
156328,91.838
156329,92.933
156330,93.872
156331,94.342
156332,94.498
156333,94.185
156334,93.559
156335,92.464
156336,91.056
156337,89.179
156338,86.988
156339,84.329
156340,81.669
156341,79.009
156342,76.819
156343,75.254
156344,74.159
156345,73.220
156346,72.125
156347,71.030
156348,69.622
156349,68.370
156350,67.119
156351,66.180
156352,65.554
156353,65.085
156354,64.615
156355,63.990
156356,63.207
156357,62.425
156358,61.799
156359,61.330
156360,61.017
156361,60.704
156362,60.391
156363,60.078
156364,59.765
156365,59.452
156366,59.139
156367,58.983
156368,58.670
156369,58.514
156370,58.357
156371,58.044
156372,57.888
156373,57.731
156374,57.418
156375,57.106
156376,56.793
156377,56.480
156378,56.323
156379,56.010
156380,55.697
156381,55.385
156382,54.915
156383,54.602
156384,53.977
156385,53.507
156386,53.038
156387,52.568
156388,52.099
156389,51.786
156390,51.473
156391,51.317
156392,51.160
156393,51.004
156394,51.004
156395,51.160
156396,51.473
156397,52.099
156398,53.038
156399,54.915
156400,57.262
156401,60.078
156402,62.738
156403,65.085
156404,66.962
156405,68.370
156406,69.778
156407,71.343
156408,73.220
156409,75.411
156410,77.601
156411,79.635
156412,81.512
156413,83.233
156414,84.641
156415,85.893
156416,86.988
156417,87.614
156418,88.083
156419,88.240
156420,87.927
156421,87.301
156422,86.049
156423,84.798
156424,83.077
156425,81.043
156426,78.853
156427,76.819
156428,75.098
156429,73.690
156430,72.751
156431,71.812
156432,70.873
156433,69.935
156434,68.840
156435,67.744
156436,66.806
156437,66.180
156438,65.554
156439,64.928
156440,64.459
156441,63.990
156442,63.364
156443,62.738
156444,62.269
156445,61.799
156446,61.330
156447,61.017
156448,60.704
156449,60.235
156450,59.922
156451,59.609
156452,59.296
156453,58.983
156454,58.827
156455,58.670
156456,58.357
156457,58.201
156458,58.044
156459,58.044
156460,57.888
156461,57.731
156462,57.418
156463,57.106
156464,56.793
156465,56.480
156466,56.167
156467,55.697
156468,55.385
156469,54.915
156470,54.446
156471,53.977
156472,53.664
156473,53.351
156474,53.194
156475,53.038
156476,53.351
156477,53.977
156478,55.228
156479,57.418
156480,60.078
156481,63.051
156482,65.867
156483,68.214
156484,70.091
156485,71.499
156486,72.751
156487,74.159
156488,75.880
156489,77.601
156490,79.635
156491,81.512
156492,83.546
156493,85.267
156494,86.675
156495,87.614
156496,88.240
156497,88.240
156498,87.770
156499,86.988
156500,86.049
156501,84.798
156502,83.703
156503,82.138
156504,80.417
156505,78.540
156506,76.819
156507,75.254
156508,74.003
156509,73.064
156510,72.438
156511,71.656
156512,70.561
156513,69.465
156514,68.370
156515,67.275
156516,66.336
156517,65.554
156518,64.928
156519,64.302
156520,63.833
156521,63.364
156522,62.894
156523,62.425
156524,61.956
156525,61.486
156526,60.860
156527,60.548
156528,60.078
156529,59.765
156530,59.452
156531,59.139
156532,58.827
156533,58.514
156534,58.201
156535,58.044
156536,57.731
156537,57.418
156538,57.106
156539,56.949
156540,56.636
156541,56.323
156542,56.167
156543,56.010
156544,55.854
156545,55.541
156546,55.385
156547,55.072
156548,54.602
156549,54.289
156550,53.977
156551,53.507
156552,53.038
156553,52.725
156554,52.256
156555,51.943
156556,51.630
156557,51.317
156558,51.160
156559,51.004
156560,50.691
156561,50.378
156562,50.222
156563,49.909
156564,49.909
156565,50.065
156566,50.691
156567,52.099
156568,54.602
156569,57.731
156570,61.486
156571,64.928
156572,67.744
156573,69.778
156574,71.186
156575,72.282
156576,73.690
156577,75.567
156578,78.070
156579,81.043
156580,84.172
156581,87.458
156582,90.430
156583,92.933
156584,94.967
156585,96.375
156586,97.471
156587,98.096
156588,98.409
156589,98.253
156590,97.940
156591,97.314
156592,96.375
156593,94.811
156594,93.090
156595,90.743
156596,87.927
156597,85.111
156598,82.764
156599,80.574
156600,79.166
156601,78.227
156602,77.288
156603,76.349
156604,75.254
156605,73.846
156606,72.594
156607,71.499
156608,70.404
156609,69.622
156610,68.996
156611,68.370
156612,67.744
156613,67.119
156614,66.493
156615,65.867
156616,65.241
156617,64.772
156618,64.146
156619,63.677
156620,63.051
156621,62.581
156622,62.112
156623,61.643
156624,61.330
156625,61.173
156626,60.860
156627,60.548
156628,60.235
156629,60.078
156630,59.609
156631,59.296
156632,58.827
156633,58.514
156634,58.044
156635,57.731
156636,57.731
156637,57.731
156638,57.731
156639,58.044
156640,58.201
156641,58.357
156642,58.201
156643,58.201
156644,58.044
156645,57.888
156646,57.575
156647,56.949
156648,56.323
156649,55.697
156650,55.072
156651,54.446
156652,53.820
156653,53.351
156654,52.881
156655,52.568
156656,52.256
156657,52.099
156658,51.943
156659,51.630
156660,51.317
156661,51.004
156662,50.535
156663,49.909
156664,49.439
156665,48.970
156666,48.501
156667,48.188
156668,47.718
156669,47.562
156670,47.249
156671,47.093
156672,46.936
156673,46.780
156674,46.467
156675,46.310
156676,45.997
156677,45.841
156678,45.684
156679,45.372
156680,45.215
156681,45.059
156682,44.902
156683,44.746
156684,44.433
156685,44.120
156686,43.807
156687,43.651
156688,43.494
156689,43.494
156690,43.338
156691,43.181
156692,43.025
156693,42.712
156694,42.555
156695,42.399
156696,42.242
156697,41.930
156698,41.930
156699,41.617
156700,41.617
156701,41.304
156702,41.147
156703,40.991
156704,40.834
156705,40.678
156706,40.521
156707,40.365
156708,40.209
156709,40.052
156710,39.896
156711,39.739
156712,39.739
156713,39.583
156714,39.583
156715,39.426
156716,39.426
156717,39.426
156718,39.426
156719,39.113
156720,39.113
156721,38.801
156722,38.644
156723,38.488
156724,38.331
156725,38.175
156726,37.862
156727,37.705
156728,37.392
156729,37.080
156730,36.767
156731,36.610
156732,36.297
156733,35.984
156734,35.984
156735,35.984
156736,36.454
156737,37.549
156738,39.583
156739,43.025
156740,47.875
156741,53.351
156742,58.670
156743,62.894
156744,65.867
156745,67.901
156746,69.935
156747,72.594
156748,76.193
156749,80.887
156750,86.362
156751,91.995
156752,97.158
156753,101.538
156754,104.824
156755,107.171
156756,108.892
156757,110.143
156758,111.395
156759,112.177
156760,112.647
156761,112.334
156762,111.395
156763,109.830
156764,107.953
156765,105.606
156766,102.946
156767,99.974
156768,96.532
156769,92.777
156770,89.179
156771,86.049
156772,83.859
156773,81.982
156774,80.574
156775,79.009
156776,77.445
156777,75.880
156778,74.315
156779,72.907
156780,71.812
156781,70.873
156782,70.091
156783,69.309
156784,68.683
156785,67.901
156786,67.275
156787,66.649
156788,66.180
156789,65.554
156790,65.085
156791,64.615
156792,63.990
156793,63.677
156794,63.207
156795,62.894
156796,62.581
156797,62.269
156798,62.112
156799,61.799
156800,61.643
156801,61.486
156802,61.173
156803,61.017
156804,60.704
156805,60.391
156806,59.922
156807,59.609
156808,59.296
156809,58.983
156810,58.670
156811,58.357
156812,57.888
156813,57.418
156814,56.949
156815,56.480
156816,55.854
156817,55.228
156818,54.915
156819,54.446
156820,54.133
156821,53.977
156822,53.977
156823,53.977
156824,53.977
156825,54.133
156826,54.289
156827,54.602
156828,55.385
156829,56.636
156830,58.670
156831,60.860
156832,63.051
156833,64.772
156834,66.180
156835,67.432
156836,68.683
156837,69.935
156838,71.343
156839,72.907
156840,74.472
156841,76.036
156842,77.445
156843,78.696
156844,79.791
156845,80.574
156846,81.199
156847,81.356
156848,81.199
156849,80.730
156850,79.948
156851,79.009
156852,77.757
156853,76.193
156854,74.315
156855,72.594
156856,71.030
156857,69.935
156858,68.996
156859,68.370
156860,67.744
156861,66.962
156862,66.023
156863,65.085
156864,63.990
156865,63.364
156866,62.738
156867,62.269
156868,61.799
156869,61.330
156870,60.860
156871,60.235
156872,59.765
156873,59.296
156874,58.827
156875,58.357
156876,58.044
156877,57.731
156878,57.418
156879,57.106
156880,56.793
156881,56.636
156882,56.480
156883,56.167
156884,56.010
156885,56.010
156886,56.010
156887,56.010
156888,56.010
156889,56.167
156890,56.323
156891,56.793
156892,57.731
156893,58.983
156894,60.235
156895,61.486
156896,62.269
156897,62.738
156898,62.894
156899,63.051
156900,63.364
156901,63.833
156902,64.302
156903,64.928
156904,65.241
156905,65.398
156906,65.554
156907,65.554
156908,65.241
156909,64.928
156910,64.302
156911,63.364
156912,62.425
156913,61.486
156914,60.391
156915,59.609
156916,58.983
156917,58.670
156918,58.357
156919,58.201
156920,57.888
156921,57.418
156922,56.793
156923,56.323
156924,55.697
156925,55.072
156926,54.602
156927,53.977
156928,53.507
156929,53.038
156930,52.725
156931,52.412
156932,52.099
156933,51.943
156934,51.786
156935,51.630
156936,51.317
156937,51.160
156938,51.004
156939,51.004
156940,51.004
156941,51.317
156942,51.630
156943,52.412
156944,53.507
156945,55.228
156946,57.418
156947,59.609
156948,61.643
156949,63.207
156950,64.459
156951,65.398
156952,66.180
156953,66.962
156954,67.744
156955,68.527
156956,69.465
156957,70.248
156958,70.873
156959,71.186
156960,71.343
156961,71.186
156962,70.717
156963,69.778
156964,68.683
156965,67.275
156966,65.867
156967,64.459
156968,63.364
156969,62.425
156970,62.112
156971,61.799
156972,61.799
156973,61.486
156974,61.017
156975,60.391
156976,59.609
156977,58.827
156978,58.044
156979,57.418
156980,56.793
156981,56.167
156982,55.541
156983,55.072
156984,54.602
156985,54.133
156986,53.820
156987,53.664
156988,53.507
156989,53.351
156990,53.194
156991,53.038
156992,52.725
156993,52.568
156994,52.256
156995,52.099
156996,51.943
156997,51.630
156998,51.630
156999,51.317
157000,51.160
157001,51.004
157002,50.691
157003,50.535
157004,50.378
157005,50.065
157006,50.065
157007,49.752
157008,49.596
157009,49.283
157010,49.126
157011,48.814
157012,48.501
157013,48.344
157014,48.188
157015,47.875
157016,47.718
157017,47.562
157018,47.405
157019,47.249
157020,46.936
157021,46.780
157022,46.623
157023,46.310
157024,46.154
157025,45.997
157026,45.684
157027,45.684
157028,45.372
157029,45.215
157030,45.059
157031,44.746
157032,44.589
157033,44.433
157034,44.120
157035,43.963
157036,43.651
157037,43.494
157038,43.181
157039,42.868
157040,42.555
157041,42.242
157042,41.930
157043,41.773
157044,41.617
157045,41.304
157046,41.147
157047,40.834
157048,40.678
157049,40.521
157050,40.365
157051,40.365
157052,40.209
157053,40.052
157054,40.052
157055,39.896
157056,39.739
157057,39.426
157058,38.957
157059,38.644
157060,38.331
157061,38.175
157062,37.862
157063,37.705
157064,37.392
157065,37.236
157066,36.923
157067,36.767
157068,36.610
157069,36.454
157070,36.454
157071,36.610
157072,37.080
157073,38.488
157074,41.304
157075,45.684
157076,51.317
157077,57.262
157078,62.269
157079,66.023
157080,68.527
157081,70.404
157082,72.594
157083,75.567
157084,79.478
157085,84.329
157086,89.648
157087,95.124
157088,100.287
157089,104.980
157090,109.048
157091,112.177
157092,114.368
157093,115.619
157094,116.402
157095,116.871
157096,117.184
157097,117.184
157098,116.402
157099,114.993
157100,112.803
157101,109.987
157102,106.545
157103,102.946
157104,98.879
157105,94.967
157106,91.056
157107,87.614
157108,84.798
157109,82.764
157110,81.199
157111,79.948
157112,78.696
157113,77.445
157114,76.036
157115,74.472
157116,73.064
157117,71.812
157118,70.873
157119,70.091
157120,69.309
157121,68.683
157122,68.057
157123,67.432
157124,66.806
157125,66.180
157126,65.554
157127,65.085
157128,64.615
157129,64.146
157130,63.677
157131,63.207
157132,62.738
157133,62.269
157134,61.956
157135,61.643
157136,61.486
157137,61.330
157138,61.017
157139,60.860
157140,60.548
157141,60.078
157142,59.765
157143,59.296
157144,58.827
157145,58.357
157146,57.888
157147,57.418
157148,56.949
157149,56.323
157150,55.854
157151,55.228
157152,54.602
157153,53.977
157154,53.664
157155,53.194
157156,52.881
157157,52.568
157158,52.256
157159,51.943
157160,51.630
157161,51.317
157162,51.004
157163,50.691
157164,50.535
157165,50.222
157166,50.065
157167,49.596
157168,49.126
157169,48.814
157170,48.344
157171,48.031
157172,47.875
157173,47.562
157174,47.249
157175,46.936
157176,46.780
157177,46.467
157178,46.310
157179,45.997
157180,45.684
157181,45.372
157182,45.215
157183,44.902
157184,44.589
157185,44.276
157186,44.120
157187,43.963
157188,43.807
157189,43.651
157190,43.494
157191,43.338
157192,43.181
157193,43.025
157194,42.868
157195,42.712
157196,42.555
157197,42.555
157198,42.555
157199,42.399
157200,42.399
157201,42.399
157202,42.242
157203,42.242
157204,42.086
157205,41.930
157206,41.773
157207,41.617
157208,41.617
157209,41.460
157210,41.304
157211,41.147
157212,40.991
157213,40.678
157214,40.678
157215,40.521
157216,40.365
157217,40.365
157218,40.209
157219,40.209
157220,40.052
157221,40.052
157222,40.052
157223,40.052
157224,40.209
157225,40.209
157226,40.052
157227,40.052
157228,40.052
157229,39.896
157230,39.739
157231,39.739
157232,39.739
157233,39.583
157234,39.426
157235,39.113
157236,38.957
157237,38.801
157238,38.644
157239,38.488
157240,38.331
157241,38.175
157242,38.175
157243,38.331
157244,38.488
157245,39.113
157246,40.365
157247,42.712
157248,46.467
157249,51.317
157250,56.636
157251,61.643
157252,65.554
157253,68.214
157254,70.091
157255,71.969
157256,74.472
157257,77.914
157258,82.295
157259,87.145
157260,91.995
157261,96.375
157262,99.817
157263,102.477
157264,104.355
157265,105.919
157266,107.640
157267,109.518
157268,111.239
157269,112.490
157270,112.647
157271,111.551
157272,109.518
157273,107.327
157274,104.824
157275,102.477
157276,99.661
157277,96.688
157278,93.246
157279,89.961
157280,86.988
157281,84.641
157282,82.920
157283,81.356
157284,79.948
157285,78.383
157286,76.975
157287,75.567
157288,74.472
157289,73.533
157290,72.751
157291,71.969
157292,71.186
157293,70.561
157294,69.935
157295,69.309
157296,68.683
157297,68.057
157298,67.588
157299,67.119
157300,66.649
157301,66.180
157302,65.554
157303,65.241
157304,64.772
157305,64.459
157306,64.302
157307,63.990
157308,63.677
157309,63.520
157310,63.207
157311,63.051
157312,62.738
157313,62.425
157314,62.112
157315,61.799
157316,61.486
157317,61.017
157318,60.548
157319,60.078
157320,59.609
157321,58.983
157322,58.357
157323,57.731
157324,57.262
157325,56.949
157326,56.636
157327,56.323
157328,56.167
157329,55.854
157330,55.541
157331,55.385
157332,55.385
157333,55.541
157334,56.167
157335,57.262
157336,58.983
157337,61.330
157338,63.677
157339,65.711
157340,67.275
157341,68.370
157342,69.309
157343,70.248
157344,71.343
157345,72.751
157346,74.472
157347,76.193
157348,77.914
157349,79.478
157350,80.730
157351,81.825
157352,82.451
157353,82.920
157354,83.077
157355,83.077
157356,82.608
157357,81.982
157358,80.887
157359,79.635
157360,77.914
157361,76.193
157362,74.472
157363,72.751
157364,71.343
157365,70.404
157366,69.778
157367,69.153
157368,68.370
157369,67.588
157370,66.649
157371,65.711
157372,64.928
157373,64.146
157374,63.520
157375,62.894
157376,62.425
157377,61.956
157378,61.486
157379,61.017
157380,60.548
157381,60.078
157382,59.609
157383,59.296
157384,58.983
157385,58.514
157386,58.201
157387,57.888
157388,57.731
157389,57.418
157390,57.262
157391,57.106
157392,56.793
157393,56.793
157394,56.480
157395,56.323
157396,56.167
157397,56.010
157398,55.697
157399,55.385
157400,55.072
157401,54.602
157402,54.289
157403,53.820
157404,53.351
157405,53.038
157406,52.725
157407,52.412
157408,52.256
157409,51.943
157410,51.786
157411,51.473
157412,51.317
157413,51.160
157414,51.317
157415,51.943
157416,53.038
157417,55.228
157418,58.201
157419,61.643
157420,65.085
157421,68.057
157422,70.248
157423,71.812
157424,73.064
157425,74.472
157426,76.349
157427,78.696
157428,81.669
157429,84.798
157430,87.927
157431,90.743
157432,93.246
157433,95.280
157434,96.688
157435,97.784
157436,98.253
157437,98.566
157438,98.566
157439,98.096
157440,97.314
157441,96.063
157442,94.654
157443,92.777
157444,90.743
157445,88.396
157446,86.049
157447,83.546
157448,81.512
157449,79.791
157450,78.540
157451,77.445
157452,76.506
157453,75.411
157454,74.159
157455,72.907
157456,71.656
157457,70.561
157458,69.622
157459,68.683
157460,67.901
157461,67.275
157462,66.493
157463,65.867
157464,65.241
157465,64.459
157466,63.990
157467,63.364
157468,62.738
157469,62.269
157470,61.956
157471,61.486
157472,61.173
157473,60.860
157474,60.548
157475,60.235
157476,60.078
157477,59.922
157478,59.609
157479,59.296
157480,58.827
157481,58.357
157482,57.888
157483,57.418
157484,56.793
157485,56.480
157486,56.010
157487,55.697
157488,55.228
157489,54.759
157490,54.289
157491,53.820
157492,53.351
157493,53.038
157494,52.725
157495,52.412
157496,52.099
157497,51.943
157498,51.786
157499,51.786
